# Temperature (C)	Pressure (bar)	Quality (l+v)	Internal Energy (l+v, kJ/mol)	Enthalpy (l+v, kJ/mol)	Entropy (l+v, J/mol*K)	Density (l, kg/m3)	Volume (l, m3/kg)	Internal Energy (l, kJ/mol)	Enthalpy (l, kJ/mol)	Entropy (l, J/mol*K)	Cv (l, J/mol*K)	Cp (l, J/mol*K)	Sound Spd. (l, m/s)	Joule-Thomson (l, K/bar)	Viscosity (l, uPa*s)	Therm. Cond. (l, W/m*K)	Density (v, kg/m3)	Volume (v, m3/kg)	Internal Energy (v, kJ/mol)	Enthalpy (v, kJ/mol)	Entropy (v, J/mol*K)	Cv (v, J/mol*K)	Cp (v, J/mol*K)	Sound Spd. (v, m/s)	Joule-Thomson (v, K/bar)	Viscosity (v, uPa*s)	Therm. Cond. (v, W/m*K)
-100.00	1.5759	0.29659	3.5977	4.0115	23.203	2887.3	0.00034634	0.35637	0.36354	2.1352	21.289	44.876	620.14	-0.059488	438.65	0.067736	15.012	0.066612	11.285	12.663	73.170	13.735	23.759	131.68	5.4642	14.251	0.0033751
-99.500	1.6171	0.30375	3.6926	4.1172	23.751	2883.9	0.00034675	0.37873	0.38609	2.2642	21.258	44.901	618.71	-0.059276	435.68	0.067548	15.373	0.065049	11.289	12.670	73.002	13.755	23.812	131.81	5.4267	14.289	0.0033865
-99.000	1.6591	0.31104	3.7887	4.2244	24.303	2880.5	0.00034717	0.40110	0.40866	2.3929	21.228	44.927	617.28	-0.059061	432.73	0.067359	15.740	0.063531	11.292	12.676	72.835	13.775	23.865	131.93	5.3896	14.327	0.0033980
-98.500	1.7020	0.31846	3.8859	4.3329	24.861	2877.0	0.00034758	0.42348	0.43124	2.5212	21.197	44.953	615.85	-0.058844	429.81	0.067170	16.114	0.062058	11.296	12.683	72.669	13.795	23.919	132.06	5.3529	14.366	0.0034095
-98.000	1.7457	0.32602	3.9843	4.4427	25.423	2873.6	0.00034800	0.44587	0.45384	2.6493	21.167	44.980	614.42	-0.058623	426.91	0.066981	16.494	0.060627	11.299	12.689	72.505	13.815	23.974	132.19	5.3166	14.404	0.0034210
-97.500	1.7903	0.33371	4.0839	4.5540	25.991	2870.1	0.00034841	0.46827	0.47646	2.7771	21.137	45.008	612.98	-0.058399	424.04	0.066791	16.881	0.059237	11.303	12.695	72.341	13.835	24.029	132.31	5.2806	14.442	0.0034326
-97.000	1.8357	0.34154	4.1847	4.6667	26.564	2866.7	0.00034883	0.49068	0.49909	2.9045	21.108	45.036	611.54	-0.058173	421.20	0.066602	17.275	0.057887	11.306	12.702	72.178	13.856	24.085	132.44	5.2451	14.481	0.0034442
-96.500	1.8820	0.34950	4.2866	4.7808	27.142	2863.2	0.00034926	0.51310	0.52173	3.0317	21.078	45.065	610.10	-0.057943	418.38	0.066412	17.676	0.056575	11.310	12.708	72.016	13.877	24.142	132.56	5.2099	14.519	0.0034558
-96.000	1.9292	0.35760	4.3897	4.8963	27.725	2859.8	0.00034968	0.53554	0.54440	3.1586	21.049	45.094	608.66	-0.057711	415.58	0.066222	18.083	0.055300	11.313	12.714	71.855	13.898	24.199	132.68	5.1751	14.558	0.0034675
-95.500	1.9772	0.36585	4.4941	5.0133	28.313	2856.3	0.00035010	0.55799	0.56708	3.2852	21.019	45.125	607.22	-0.057475	412.80	0.066032	18.498	0.054060	11.317	12.720	71.695	13.919	24.257	132.81	5.1407	14.597	0.0034792
-95.000	2.0262	0.37424	4.5997	5.1317	28.907	2852.8	0.00035053	0.58045	0.58977	3.4115	20.990	45.155	605.78	-0.057236	410.05	0.065842	18.920	0.052855	11.320	12.726	71.536	13.940	24.316	132.93	5.1066	14.636	0.0034910
-94.500	2.0760	0.38278	4.7065	5.2516	29.505	2849.3	0.00035096	0.60292	0.61249	3.5375	20.962	45.187	604.34	-0.056994	407.33	0.065652	19.348	0.051684	11.323	12.732	71.378	13.961	24.375	133.05	5.0728	14.675	0.0035028
-94.000	2.1268	0.39146	4.8145	5.3730	30.109	2845.8	0.00035139	0.62541	0.63522	3.6633	20.933	45.218	602.89	-0.056750	404.62	0.065461	19.784	0.050545	11.327	12.738	71.221	13.983	24.435	133.16	5.0394	14.714	0.0035146
-93.500	2.1786	0.40029	4.9238	5.4958	30.718	2842.3	0.00035182	0.64790	0.65797	3.7888	20.904	45.251	601.44	-0.056502	401.94	0.065271	20.228	0.049437	11.330	12.744	71.064	14.005	24.496	133.28	5.0064	14.753	0.0035265
-93.000	2.2312	0.40927	5.0343	5.6202	31.333	2838.8	0.00035226	0.67042	0.68074	3.9140	20.876	45.284	599.99	-0.056250	399.28	0.065080	20.678	0.048360	11.333	12.750	70.909	14.026	24.558	133.40	4.9737	14.792	0.0035384
-92.500	2.2848	0.41840	5.1461	5.7461	31.952	2835.3	0.00035269	0.69294	0.70352	4.0389	20.848	45.318	598.54	-0.055996	396.64	0.064890	21.137	0.047311	11.336	12.756	70.754	14.048	24.620	133.51	4.9413	14.832	0.0035504
-92.000	2.3394	0.42768	5.2591	5.8734	32.577	2831.8	0.00035313	0.71548	0.72633	4.1636	20.820	45.353	597.09	-0.055738	394.02	0.064699	21.602	0.046291	11.339	12.761	70.600	14.071	24.683	133.63	4.9092	14.871	0.0035624
-91.500	2.3950	0.43712	5.3735	6.0024	33.207	2828.3	0.00035357	0.73804	0.74915	4.2880	20.792	45.388	595.64	-0.055477	391.43	0.064508	22.076	0.045298	11.342	12.767	70.447	14.093	24.747	133.74	4.8775	14.911	0.0035744
-91.000	2.4516	0.44672	5.4891	6.1329	33.843	2824.8	0.00035401	0.76060	0.77200	4.4122	20.764	45.423	594.18	-0.055213	388.85	0.064317	22.557	0.044332	11.346	12.772	70.295	14.116	24.811	133.85	4.8461	14.951	0.0035865
-90.500	2.5091	0.45648	5.6060	6.2649	34.484	2821.2	0.00035446	0.78319	0.79486	4.5360	20.737	45.460	592.72	-0.054946	386.30	0.064127	23.046	0.043392	11.349	12.778	70.143	14.138	24.877	133.96	4.8150	14.991	0.0035986
-90.000	2.5677	0.46639	5.7243	6.3985	35.131	2817.7	0.00035490	0.80578	0.81775	4.6597	20.709	45.497	591.26	-0.054675	383.77	0.063936	23.543	0.042476	11.352	12.783	69.992	14.161	24.943	134.07	4.7842	15.031	0.0036108
-89.500	2.6272	0.47648	5.8438	6.5337	35.782	2814.1	0.00035535	0.82840	0.84065	4.7831	20.682	45.535	589.80	-0.054400	381.25	0.063745	24.047	0.041584	11.354	12.789	69.843	14.184	25.010	134.18	4.7537	15.071	0.0036231
-89.000	2.6879	0.48672	5.9646	6.6704	36.440	2810.6	0.00035580	0.85102	0.86358	4.9062	20.655	45.573	588.34	-0.054122	378.76	0.063554	24.560	0.040716	11.357	12.794	69.693	14.208	25.077	134.29	4.7235	15.111	0.0036353
-88.500	2.7495	0.49713	6.0868	6.8088	37.102	2807.0	0.00035625	0.87367	0.88653	5.0291	20.628	45.612	586.88	-0.053841	376.29	0.063363	25.081	0.039870	11.360	12.799	69.545	14.231	25.146	134.39	4.6937	15.152	0.0036477
-88.000	2.8122	0.50771	6.2104	6.9488	37.770	2803.4	0.00035671	0.89633	0.90950	5.1517	20.601	45.652	585.41	-0.053556	373.84	0.063172	25.611	0.039046	11.363	12.805	69.398	14.255	25.215	134.50	4.6641	15.192	0.0036600
-87.500	2.8760	0.51846	6.3352	7.0904	38.444	2799.8	0.00035716	0.91900	0.93249	5.2741	20.574	45.692	583.94	-0.053268	371.40	0.062981	26.148	0.038244	11.366	12.810	69.251	14.278	25.285	134.60	4.6347	15.233	0.0036724
-87.000	2.9408	0.52939	6.4615	7.2337	39.123	2796.2	0.00035762	0.94170	0.95550	5.3963	20.548	45.734	582.47	-0.052976	368.99	0.062790	26.694	0.037462	11.368	12.815	69.105	14.302	25.356	134.70	4.6057	15.274	0.0036849
-86.500	3.0068	0.54048	6.5890	7.3786	39.807	2792.7	0.00035808	0.96440	0.97854	5.5182	20.522	45.776	581.00	-0.052681	366.59	0.062599	27.248	0.036699	11.371	12.820	68.959	14.326	25.427	134.81	4.5770	15.315	0.0036974
-86.000	3.0738	0.55176	6.7180	7.5251	40.497	2789.0	0.00035855	0.98713	1.0016	5.6399	20.495	45.818	579.53	-0.052381	364.21	0.062408	27.811	0.035956	11.374	12.825	68.815	14.350	25.500	134.91	4.5485	15.356	0.0037100
-85.500	3.1419	0.56321	6.8483	7.6734	41.193	2785.4	0.00035901	1.0099	1.0247	5.7613	20.469	45.861	578.05	-0.052079	361.85	0.062217	28.383	0.035232	11.376	12.830	68.671	14.375	25.573	135.01	4.5203	15.397	0.0037226
-85.000	3.2112	0.57484	6.9801	7.8233	41.894	2781.8	0.00035948	1.0326	1.0478	5.8826	20.444	45.905	576.58	-0.051772	359.51	0.062026	28.963	0.034526	11.379	12.834	68.528	14.399	25.647	135.11	4.4924	15.438	0.0037353
-84.500	3.2816	0.58666	7.1132	7.9749	42.600	2778.2	0.00035995	1.0554	1.0709	6.0036	20.418	45.950	575.10	-0.051462	357.19	0.061835	29.553	0.033838	11.381	12.839	68.385	14.424	25.722	135.20	4.4647	15.480	0.0037480
-84.000	3.3531	0.59866	7.2477	8.1282	43.312	2774.6	0.00036042	1.0782	1.0941	6.1244	20.392	45.996	573.62	-0.051147	354.88	0.061645	30.151	0.033166	11.384	12.844	68.244	14.449	25.798	135.30	4.4373	15.521	0.0037608
-83.500	3.4258	0.61084	7.3836	8.2832	44.030	2770.9	0.00036089	1.1010	1.1173	6.2450	20.367	46.042	572.14	-0.050829	352.60	0.061454	30.758	0.032512	11.386	12.849	68.102	14.474	25.875	135.39	4.4102	15.563	0.0037736
-83.000	3.4997	0.62322	7.5210	8.4400	44.753	2767.3	0.00036137	1.1239	1.1405	6.3653	20.342	46.089	570.65	-0.050507	350.33	0.061263	31.375	0.031873	11.389	12.853	67.962	14.499	25.953	135.49	4.3833	15.605	0.0037865
-82.500	3.5747	0.63578	7.6598	8.5985	45.482	2763.6	0.00036185	1.1467	1.1637	6.4854	20.316	46.137	569.16	-0.050181	348.07	0.061072	32.000	0.031250	11.391	12.858	67.822	14.524	26.031	135.58	4.3566	15.647	0.0037994
-82.000	3.6509	0.64854	7.8000	8.7587	46.217	2759.9	0.00036233	1.1696	1.1869	6.6054	20.291	46.185	567.68	-0.049852	345.84	0.060882	32.635	0.030642	11.393	12.862	67.683	14.549	26.111	135.67	4.3302	15.689	0.0038124
-81.500	3.7284	0.66150	7.9417	8.9207	46.957	2756.3	0.00036281	1.1925	1.2102	6.7251	20.267	46.234	566.19	-0.049518	343.62	0.060691	33.279	0.030049	11.395	12.866	67.545	14.575	26.191	135.77	4.3041	15.731	0.0038254
-81.000	3.8070	0.67465	8.0848	9.0845	47.703	2752.6	0.00036330	1.2154	1.2335	6.8446	20.242	46.284	564.69	-0.049180	341.41	0.060500	33.933	0.029470	11.398	12.871	67.407	14.601	26.273	135.86	4.2782	15.774	0.0038385
-80.500	3.8868	0.68800	8.2294	9.2500	48.454	2748.9	0.00036378	1.2383	1.2569	6.9639	20.217	46.335	563.20	-0.048838	339.23	0.060310	34.596	0.028905	11.400	12.875	67.269	14.627	26.355	135.94	4.2525	15.816	0.0038517
-80.000	3.9679	0.70156	8.3754	9.4173	49.211	2745.2	0.00036427	1.2613	1.2802	7.0830	20.193	46.387	561.70	-0.048491	337.06	0.060119	35.270	0.028353	11.402	12.879	67.133	14.653	26.438	136.03	4.2271	15.859	0.0038649
-79.500	4.0503	0.71532	8.5229	9.5865	49.974	2741.5	0.00036477	1.2842	1.3036	7.2019	20.169	46.439	560.20	-0.048141	334.90	0.059929	35.952	0.027815	11.404	12.883	66.997	14.679	26.522	136.12	4.2019	15.902	0.0038782
-79.000	4.1338	0.72928	8.6719	9.7574	50.743	2737.8	0.00036526	1.3072	1.3270	7.3206	20.145	46.493	558.70	-0.047786	332.76	0.059739	36.645	0.027289	11.406	12.887	66.861	14.705	26.608	136.20	4.1769	15.945	0.0038915
-78.500	4.2187	0.74346	8.8224	9.9302	51.517	2734.0	0.00036576	1.3302	1.3505	7.4392	20.121	46.547	557.20	-0.047427	330.64	0.059548	37.348	0.026775	11.408	12.891	66.727	14.732	26.694	136.29	4.1522	15.988	0.0039049
-78.000	4.3048	0.75784	8.9744	10.105	52.297	2730.3	0.00036626	1.3533	1.3740	7.5575	20.097	46.602	555.69	-0.047063	328.53	0.059358	38.061	0.026274	11.410	12.895	66.592	14.758	26.781	136.37	4.1277	16.031	0.0039184
-77.500	4.3923	0.77244	9.1279	10.281	53.082	2726.6	0.00036676	1.3763	1.3975	7.6756	20.073	46.657	554.18	-0.046695	326.44	0.059168	38.784	0.025784	11.412	12.898	66.459	14.785	26.869	136.45	4.1034	16.075	0.0039319
-77.000	4.4810	0.78726	9.2829	10.460	53.873	2722.8	0.00036727	1.3994	1.4210	7.7936	20.050	46.714	552.67	-0.046323	324.36	0.058978	39.517	0.025305	11.413	12.902	66.326	14.812	26.958	136.54	4.0793	16.118	0.0039455
-76.500	4.5710	0.80230	9.4395	10.640	54.671	2719.0	0.00036778	1.4225	1.4446	7.9114	20.026	46.771	551.16	-0.045946	322.29	0.058788	40.261	0.024838	11.415	12.906	66.193	14.839	27.048	136.62	4.0554	16.162	0.0039591
-76.000	4.6624	0.81755	9.5976	10.822	55.473	2715.3	0.00036829	1.4456	1.4682	8.0290	20.003	46.830	549.65	-0.045565	320.25	0.058599	41.015	0.024381	11.417	12.909	66.061	14.867	27.140	136.70	4.0318	16.206	0.0039729
-75.500	4.7551	0.83303	9.7572	11.006	56.282	2711.5	0.00036880	1.4688	1.4918	8.1464	19.980	46.889	548.13	-0.045178	318.21	0.058409	41.780	0.023935	11.418	12.913	65.930	14.894	27.232	136.77	4.0083	16.250	0.0039866
-75.000	4.8492	0.84874	9.9183	11.192	57.096	2707.7	0.00036932	1.4919	1.5155	8.2636	19.957	46.949	546.61	-0.044788	316.19	0.058219	42.556	0.023498	11.420	12.916	65.799	14.922	27.325	136.85	3.9851	16.295	0.0040005
-74.500	4.9446	0.86468	10.081	11.379	57.916	2703.9	0.00036984	1.5151	1.5392	8.3807	19.934	47.010	545.09	-0.044392	314.19	0.058030	43.342	0.023072	11.422	12.919	65.669	14.949	27.420	136.93	3.9621	16.339	0.0040144
-74.000	5.0414	0.88085	10.245	11.569	58.742	2700.1	0.00037036	1.5384	1.5629	8.4976	19.911	47.072	543.57	-0.043992	312.19	0.057840	44.140	0.022655	11.423	12.923	65.539	14.977	27.516	137.00	3.9392	16.384	0.0040284
-73.500	5.1395	0.89725	10.411	11.761	59.574	2696.3	0.00037088	1.5616	1.5866	8.6143	19.889	47.135	542.04	-0.043586	310.22	0.057651	44.948	0.022248	11.425	12.926	65.409	15.005	27.612	137.07	3.9166	16.429	0.0040425
-73.000	5.2391	0.91390	10.579	11.954	60.411	2692.4	0.00037141	1.5849	1.6104	8.7309	19.866	47.198	540.51	-0.043176	308.25	0.057462	45.768	0.021849	11.426	12.929	65.281	15.033	27.710	137.15	3.8942	16.474	0.0040566
-72.500	5.3401	0.93078	10.748	12.150	61.255	2688.6	0.00037194	1.6082	1.6342	8.8473	19.844	47.263	538.98	-0.042761	306.30	0.057273	46.599	0.021460	11.427	12.932	65.152	15.062	27.809	137.22	3.8719	16.519	0.0040708
-72.000	5.4425	0.94790	10.918	12.347	62.104	2684.8	0.00037247	1.6315	1.6581	8.9635	19.822	47.329	537.44	-0.042341	304.36	0.057084	47.441	0.021079	11.429	12.935	65.025	15.090	27.909	137.29	3.8499	16.564	0.0040851
-71.500	5.5463	0.96528	11.090	12.547	62.959	2680.9	0.00037301	1.6548	1.6820	9.0796	19.800	47.396	535.91	-0.041915	302.44	0.056895	48.295	0.020706	11.430	12.938	64.897	15.119	28.011	137.36	3.8280	16.610	0.0040994
-71.000	5.6516	0.98290	11.264	12.748	63.820	2677.0	0.00037355	1.6782	1.7059	9.1956	19.778	47.463	534.37	-0.041485	300.53	0.056706	49.161	0.020342	11.431	12.940	64.770	15.147	28.113	137.43	3.8063	16.655	0.0041138
-70.500	5.7544	undefined	11.432	12.943	64.651	50.000	0.020000	11.432	12.943	64.651	15.173	28.209	137.50	3.7848	16.701	0.0041281	50.000	0.020000	11.432	12.943	64.651	15.173	28.209	137.50	3.7848	16.701	0.0041281
-70.000	5.7721	undefined	11.440	12.956	64.688	50.000	0.020000	11.440	12.956	64.688	15.133	28.123	137.74	3.7638	16.737	0.0041373	50.000	0.020000	11.440	12.956	64.688	15.133	28.123	137.74	3.7638	16.737	0.0041373
-69.500	5.7897	undefined	11.448	12.968	64.725	50.000	0.020000	11.448	12.968	64.725	15.094	28.039	137.98	3.7431	16.773	0.0041466	50.000	0.020000	11.448	12.968	64.725	15.094	28.039	137.98	3.7431	16.773	0.0041466
-69.000	5.8073	undefined	11.455	12.980	64.762	50.000	0.020000	11.455	12.980	64.762	15.056	27.957	138.22	3.7226	16.809	0.0041558	50.000	0.020000	11.455	12.980	64.762	15.056	27.957	138.22	3.7226	16.809	0.0041558
-68.500	5.8249	undefined	11.463	12.992	64.799	50.000	0.020000	11.463	12.992	64.799	15.019	27.877	138.46	3.7023	16.846	0.0041651	50.000	0.020000	11.463	12.992	64.799	15.019	27.877	138.46	3.7023	16.846	0.0041651
-68.000	5.8425	undefined	11.470	13.004	64.836	50.000	0.020000	11.470	13.004	64.836	14.983	27.799	138.70	3.6822	16.882	0.0041743	50.000	0.020000	11.470	13.004	64.836	14.983	27.799	138.70	3.6822	16.882	0.0041743
-67.500	5.8600	undefined	11.478	13.016	64.872	50.000	0.020000	11.478	13.016	64.872	14.947	27.723	138.93	3.6624	16.918	0.0041835	50.000	0.020000	11.478	13.016	64.872	14.947	27.723	138.93	3.6624	16.918	0.0041835
-67.000	5.8775	undefined	11.485	13.028	64.909	50.000	0.020000	11.485	13.028	64.909	14.913	27.648	139.17	3.6428	16.954	0.0041927	50.000	0.020000	11.485	13.028	64.909	14.913	27.648	139.17	3.6428	16.954	0.0041927
-66.500	5.8951	undefined	11.492	13.040	64.945	50.000	0.020000	11.492	13.040	64.945	14.879	27.575	139.40	3.6234	16.991	0.0042020	50.000	0.020000	11.492	13.040	64.945	14.879	27.575	139.40	3.6234	16.991	0.0042020
-66.000	5.9126	undefined	11.500	13.052	64.981	50.000	0.020000	11.500	13.052	64.981	14.846	27.504	139.63	3.6042	17.027	0.0042112	50.000	0.020000	11.500	13.052	64.981	14.846	27.504	139.63	3.6042	17.027	0.0042112
-65.500	5.9301	undefined	11.507	13.064	65.016	50.000	0.020000	11.507	13.064	65.016	14.814	27.434	139.86	3.5852	17.063	0.0042204	50.000	0.020000	11.507	13.064	65.016	14.814	27.434	139.86	3.5852	17.063	0.0042204
-65.000	5.9475	undefined	11.515	13.076	65.052	50.000	0.020000	11.515	13.076	65.052	14.783	27.365	140.09	3.5664	17.099	0.0042296	50.000	0.020000	11.515	13.076	65.052	14.783	27.365	140.09	3.5664	17.099	0.0042296
-64.500	5.9650	undefined	11.522	13.088	65.087	50.000	0.020000	11.522	13.088	65.087	14.752	27.299	140.32	3.5478	17.136	0.0042388	50.000	0.020000	11.522	13.088	65.087	14.752	27.299	140.32	3.5478	17.136	0.0042388
-64.000	5.9824	undefined	11.529	13.100	65.123	50.000	0.020000	11.529	13.100	65.123	14.723	27.233	140.55	3.5295	17.172	0.0042480	50.000	0.020000	11.529	13.100	65.123	14.723	27.233	140.55	3.5295	17.172	0.0042480
-63.500	5.9999	undefined	11.537	13.112	65.158	50.000	0.020000	11.537	13.112	65.158	14.693	27.169	140.78	3.5113	17.208	0.0042572	50.000	0.020000	11.537	13.112	65.158	14.693	27.169	140.78	3.5113	17.208	0.0042572
-63.000	6.0173	undefined	11.544	13.124	65.193	50.000	0.020000	11.544	13.124	65.193	14.665	27.106	141.01	3.4933	17.244	0.0042664	50.000	0.020000	11.544	13.124	65.193	14.665	27.106	141.01	3.4933	17.244	0.0042664
-62.500	6.0347	undefined	11.551	13.136	65.227	50.000	0.020000	11.551	13.136	65.227	14.637	27.045	141.23	3.4755	17.281	0.0042756	50.000	0.020000	11.551	13.136	65.227	14.637	27.045	141.23	3.4755	17.281	0.0042756
-62.000	6.0521	undefined	11.559	13.148	65.262	50.000	0.020000	11.559	13.148	65.262	14.610	26.985	141.46	3.4579	17.317	0.0042848	50.000	0.020000	11.559	13.148	65.262	14.610	26.985	141.46	3.4579	17.317	0.0042848
-61.500	6.0695	undefined	11.566	13.160	65.297	50.000	0.020000	11.566	13.160	65.297	14.583	26.926	141.68	3.4404	17.353	0.0042940	50.000	0.020000	11.566	13.160	65.297	14.583	26.926	141.68	3.4404	17.353	0.0042940
-61.000	6.0868	undefined	11.573	13.172	65.331	50.000	0.020000	11.573	13.172	65.331	14.557	26.868	141.91	3.4232	17.389	0.0043032	50.000	0.020000	11.573	13.172	65.331	14.557	26.868	141.91	3.4232	17.389	0.0043032
-60.500	6.1042	undefined	11.581	13.184	65.365	50.000	0.020000	11.581	13.184	65.365	14.532	26.811	142.13	3.4061	17.426	0.0043124	50.000	0.020000	11.581	13.184	65.365	14.532	26.811	142.13	3.4061	17.426	0.0043124
-60.000	6.1215	undefined	11.588	13.195	65.399	50.000	0.020000	11.588	13.195	65.399	14.507	26.756	142.35	3.3892	17.462	0.0043216	50.000	0.020000	11.588	13.195	65.399	14.507	26.756	142.35	3.3892	17.462	0.0043216
-59.500	6.1389	undefined	11.595	13.207	65.433	50.000	0.020000	11.595	13.207	65.433	14.482	26.701	142.57	3.3724	17.498	0.0043308	50.000	0.020000	11.595	13.207	65.433	14.482	26.701	142.57	3.3724	17.498	0.0043308
-59.000	6.1562	undefined	11.602	13.219	65.467	50.000	0.020000	11.602	13.219	65.467	14.458	26.648	142.79	3.3558	17.534	0.0043399	50.000	0.020000	11.602	13.219	65.467	14.458	26.648	142.79	3.3558	17.534	0.0043399
-58.500	6.1735	undefined	11.610	13.231	65.501	50.000	0.020000	11.610	13.231	65.501	14.435	26.595	143.01	3.3394	17.571	0.0043491	50.000	0.020000	11.610	13.231	65.501	14.435	26.595	143.01	3.3394	17.571	0.0043491
-58.000	6.1908	undefined	11.617	13.242	65.534	50.000	0.020000	11.617	13.242	65.534	14.412	26.544	143.23	3.3231	17.607	0.0043583	50.000	0.020000	11.617	13.242	65.534	14.412	26.544	143.23	3.3231	17.607	0.0043583
-57.500	6.2081	undefined	11.624	13.254	65.568	50.000	0.020000	11.624	13.254	65.568	14.390	26.493	143.45	3.3070	17.643	0.0043675	50.000	0.020000	11.624	13.254	65.568	14.390	26.493	143.45	3.3070	17.643	0.0043675
-57.000	6.2253	undefined	11.631	13.266	65.601	50.000	0.020000	11.631	13.266	65.601	14.368	26.443	143.67	3.2911	17.680	0.0043766	50.000	0.020000	11.631	13.266	65.601	14.368	26.443	143.67	3.2911	17.680	0.0043766
-56.500	6.2426	undefined	11.638	13.278	65.634	50.000	0.020000	11.638	13.278	65.634	14.346	26.395	143.89	3.2753	17.716	0.0043858	50.000	0.020000	11.638	13.278	65.634	14.346	26.395	143.89	3.2753	17.716	0.0043858
-56.000	6.2599	undefined	11.646	13.289	65.667	50.000	0.020000	11.646	13.289	65.667	14.325	26.347	144.10	3.2597	17.752	0.0043950	50.000	0.020000	11.646	13.289	65.667	14.325	26.347	144.10	3.2597	17.752	0.0043950
-55.500	6.2771	undefined	11.653	13.301	65.700	50.000	0.020000	11.653	13.301	65.700	14.304	26.300	144.32	3.2442	17.788	0.0044041	50.000	0.020000	11.653	13.301	65.700	14.304	26.300	144.32	3.2442	17.788	0.0044041
-55.000	6.2943	undefined	11.660	13.313	65.733	50.000	0.020000	11.660	13.313	65.733	14.284	26.254	144.53	3.2288	17.825	0.0044133	50.000	0.020000	11.660	13.313	65.733	14.284	26.254	144.53	3.2288	17.825	0.0044133
-54.500	6.3116	undefined	11.667	13.324	65.766	50.000	0.020000	11.667	13.324	65.766	14.264	26.208	144.75	3.2136	17.861	0.0044224	50.000	0.020000	11.667	13.324	65.766	14.264	26.208	144.75	3.2136	17.861	0.0044224
-54.000	6.3288	undefined	11.674	13.336	65.798	50.000	0.020000	11.674	13.336	65.798	14.245	26.164	144.96	3.1985	17.897	0.0044316	50.000	0.020000	11.674	13.336	65.798	14.245	26.164	144.96	3.1985	17.897	0.0044316
-53.500	6.3460	undefined	11.681	13.348	65.831	50.000	0.020000	11.681	13.348	65.831	14.226	26.120	145.17	3.1836	17.934	0.0044407	50.000	0.020000	11.681	13.348	65.831	14.226	26.120	145.17	3.1836	17.934	0.0044407
-53.000	6.3632	undefined	11.688	13.359	65.863	50.000	0.020000	11.688	13.359	65.863	14.207	26.077	145.39	3.1688	17.970	0.0044499	50.000	0.020000	11.688	13.359	65.863	14.207	26.077	145.39	3.1688	17.970	0.0044499
-52.500	6.3804	undefined	11.695	13.371	65.895	50.000	0.020000	11.695	13.371	65.895	14.188	26.034	145.60	3.1541	18.006	0.0044590	50.000	0.020000	11.695	13.371	65.895	14.188	26.034	145.60	3.1541	18.006	0.0044590
-52.000	6.3975	undefined	11.703	13.382	65.927	50.000	0.020000	11.703	13.382	65.927	14.170	25.993	145.81	3.1396	18.042	0.0044681	50.000	0.020000	11.703	13.382	65.927	14.170	25.993	145.81	3.1396	18.042	0.0044681
-51.500	6.4147	undefined	11.710	13.394	65.959	50.000	0.020000	11.710	13.394	65.959	14.152	25.952	146.02	3.1252	18.079	0.0044773	50.000	0.020000	11.710	13.394	65.959	14.152	25.952	146.02	3.1252	18.079	0.0044773
-51.000	6.4319	undefined	11.717	13.406	65.991	50.000	0.020000	11.717	13.406	65.991	14.135	25.911	146.23	3.1109	18.115	0.0044864	50.000	0.020000	11.717	13.406	65.991	14.135	25.911	146.23	3.1109	18.115	0.0044864
-50.500	6.4490	undefined	11.724	13.417	66.023	50.000	0.020000	11.724	13.417	66.023	14.118	25.872	146.44	3.0968	18.151	0.0044955	50.000	0.020000	11.724	13.417	66.023	14.118	25.872	146.44	3.0968	18.151	0.0044955
-50.000	6.4662	undefined	11.731	13.429	66.055	50.000	0.020000	11.731	13.429	66.055	14.101	25.832	146.65	3.0828	18.188	0.0045047	50.000	0.020000	11.731	13.429	66.055	14.101	25.832	146.65	3.0828	18.188	0.0045047
-49.500	6.4833	undefined	11.738	13.440	66.086	50.000	0.020000	11.738	13.440	66.086	14.085	25.794	146.85	3.0689	18.224	0.0045138	50.000	0.020000	11.738	13.440	66.086	14.085	25.794	146.85	3.0689	18.224	0.0045138
-49.000	6.5004	undefined	11.745	13.452	66.118	50.000	0.020000	11.745	13.452	66.118	14.068	25.756	147.06	3.0551	18.260	0.0045229	50.000	0.020000	11.745	13.452	66.118	14.068	25.756	147.06	3.0551	18.260	0.0045229
-48.500	6.5176	undefined	11.752	13.463	66.149	50.000	0.020000	11.752	13.463	66.149	14.052	25.719	147.27	3.0414	18.296	0.0045320	50.000	0.020000	11.752	13.463	66.149	14.052	25.719	147.27	3.0414	18.296	0.0045320
-48.000	6.5347	undefined	11.759	13.475	66.180	50.000	0.020000	11.759	13.475	66.180	14.037	25.682	147.48	3.0279	18.333	0.0045411	50.000	0.020000	11.759	13.475	66.180	14.037	25.682	147.48	3.0279	18.333	0.0045411
-47.500	6.5518	undefined	11.766	13.486	66.211	50.000	0.020000	11.766	13.486	66.211	14.021	25.646	147.68	3.0144	18.369	0.0045503	50.000	0.020000	11.766	13.486	66.211	14.021	25.646	147.68	3.0144	18.369	0.0045503
-47.000	6.5689	undefined	11.773	13.498	66.242	50.000	0.020000	11.773	13.498	66.242	14.006	25.610	147.89	3.0011	18.405	0.0045594	50.000	0.020000	11.773	13.498	66.242	14.006	25.610	147.89	3.0011	18.405	0.0045594
-46.500	6.5860	undefined	11.780	13.509	66.273	50.000	0.020000	11.780	13.509	66.273	13.991	25.575	148.09	2.9879	18.442	0.0045685	50.000	0.020000	11.780	13.509	66.273	13.991	25.575	148.09	2.9879	18.442	0.0045685
-46.000	6.6030	undefined	11.787	13.521	66.304	50.000	0.020000	11.787	13.521	66.304	13.977	25.541	148.30	2.9748	18.478	0.0045776	50.000	0.020000	11.787	13.521	66.304	13.977	25.541	148.30	2.9748	18.478	0.0045776
-45.500	6.6201	undefined	11.794	13.532	66.335	50.000	0.020000	11.794	13.532	66.335	13.962	25.507	148.50	2.9618	18.514	0.0045867	50.000	0.020000	11.794	13.532	66.335	13.962	25.507	148.50	2.9618	18.514	0.0045867
-45.000	6.6372	undefined	11.801	13.544	66.365	50.000	0.020000	11.801	13.544	66.365	13.948	25.473	148.71	2.9490	18.551	0.0045958	50.000	0.020000	11.801	13.544	66.365	13.948	25.473	148.71	2.9490	18.551	0.0045958
-44.500	6.6542	undefined	11.808	13.555	66.396	50.000	0.020000	11.808	13.555	66.396	13.934	25.440	148.91	2.9362	18.587	0.0046049	50.000	0.020000	11.808	13.555	66.396	13.934	25.440	148.91	2.9362	18.587	0.0046049
-44.000	6.6713	undefined	11.815	13.567	66.426	50.000	0.020000	11.815	13.567	66.426	13.920	25.407	149.11	2.9235	18.623	0.0046140	50.000	0.020000	11.815	13.567	66.426	13.920	25.407	149.11	2.9235	18.623	0.0046140
-43.500	6.6883	undefined	11.822	13.578	66.457	50.000	0.020000	11.822	13.578	66.457	13.907	25.375	149.31	2.9110	18.659	0.0046231	50.000	0.020000	11.822	13.578	66.457	13.907	25.375	149.31	2.9110	18.659	0.0046231
-43.000	6.7054	undefined	11.829	13.590	66.487	50.000	0.020000	11.829	13.590	66.487	13.894	25.343	149.51	2.8985	18.696	0.0046321	50.000	0.020000	11.829	13.590	66.487	13.894	25.343	149.51	2.8985	18.696	0.0046321
-42.500	6.7224	undefined	11.836	13.601	66.517	50.000	0.020000	11.836	13.601	66.517	13.880	25.312	149.72	2.8861	18.732	0.0046412	50.000	0.020000	11.836	13.601	66.517	13.880	25.312	149.72	2.8861	18.732	0.0046412
-42.000	6.7394	undefined	11.843	13.612	66.547	50.000	0.020000	11.843	13.612	66.547	13.868	25.281	149.92	2.8739	18.768	0.0046503	50.000	0.020000	11.843	13.612	66.547	13.868	25.281	149.92	2.8739	18.768	0.0046503
-41.500	6.7565	undefined	11.850	13.624	66.577	50.000	0.020000	11.850	13.624	66.577	13.855	25.251	150.12	2.8617	18.805	0.0046594	50.000	0.020000	11.850	13.624	66.577	13.855	25.251	150.12	2.8617	18.805	0.0046594
-41.000	6.7735	undefined	11.857	13.635	66.607	50.000	0.020000	11.857	13.635	66.607	13.842	25.221	150.32	2.8496	18.841	0.0046685	50.000	0.020000	11.857	13.635	66.607	13.842	25.221	150.32	2.8496	18.841	0.0046685
-40.500	6.7905	undefined	11.863	13.647	66.637	50.000	0.020000	11.863	13.647	66.637	13.830	25.191	150.52	2.8376	18.877	0.0046775	50.000	0.020000	11.863	13.647	66.637	13.830	25.191	150.52	2.8376	18.877	0.0046775
-40.000	6.8075	undefined	11.870	13.658	66.666	50.000	0.020000	11.870	13.658	66.666	13.818	25.162	150.72	2.8258	18.914	0.0046866	50.000	0.020000	11.870	13.658	66.666	13.818	25.162	150.72	2.8258	18.914	0.0046866
-39.500	6.8245	undefined	11.877	13.669	66.696	50.000	0.020000	11.877	13.669	66.696	13.806	25.133	150.91	2.8140	18.950	0.0046957	50.000	0.020000	11.877	13.669	66.696	13.806	25.133	150.91	2.8140	18.950	0.0046957
-39.000	6.8415	undefined	11.884	13.681	66.725	50.000	0.020000	11.884	13.681	66.725	13.794	25.104	151.11	2.8023	18.986	0.0047047	50.000	0.020000	11.884	13.681	66.725	13.794	25.104	151.11	2.8023	18.986	0.0047047
-38.500	6.8584	undefined	11.891	13.692	66.755	50.000	0.020000	11.891	13.692	66.755	13.783	25.076	151.31	2.7907	19.023	0.0047138	50.000	0.020000	11.891	13.692	66.755	13.783	25.076	151.31	2.7907	19.023	0.0047138
-38.000	6.8754	undefined	11.898	13.703	66.784	50.000	0.020000	11.898	13.703	66.784	13.771	25.048	151.51	2.7791	19.059	0.0047229	50.000	0.020000	11.898	13.703	66.784	13.771	25.048	151.51	2.7791	19.059	0.0047229
-37.500	6.8924	undefined	11.905	13.715	66.813	50.000	0.020000	11.905	13.715	66.813	13.760	25.021	151.70	2.7677	19.095	0.0047319	50.000	0.020000	11.905	13.715	66.813	13.760	25.021	151.70	2.7677	19.095	0.0047319
-37.000	6.9094	undefined	11.912	13.726	66.843	50.000	0.020000	11.912	13.726	66.843	13.749	24.994	151.90	2.7564	19.131	0.0047410	50.000	0.020000	11.912	13.726	66.843	13.749	24.994	151.90	2.7564	19.131	0.0047410
-36.500	6.9263	undefined	11.919	13.737	66.872	50.000	0.020000	11.919	13.737	66.872	13.738	24.967	152.10	2.7451	19.168	0.0047500	50.000	0.020000	11.919	13.737	66.872	13.738	24.967	152.10	2.7451	19.168	0.0047500
-36.000	6.9433	undefined	11.925	13.749	66.901	50.000	0.020000	11.925	13.749	66.901	13.727	24.941	152.29	2.7339	19.204	0.0047591	50.000	0.020000	11.925	13.749	66.901	13.727	24.941	152.29	2.7339	19.204	0.0047591
-35.500	6.9602	undefined	11.932	13.760	66.929	50.000	0.020000	11.932	13.760	66.929	13.716	24.915	152.49	2.7228	19.240	0.0047681	50.000	0.020000	11.932	13.760	66.929	13.716	24.915	152.49	2.7228	19.240	0.0047681
-35.000	6.9772	undefined	11.939	13.771	66.958	50.000	0.020000	11.939	13.771	66.958	13.706	24.889	152.68	2.7118	19.277	0.0047772	50.000	0.020000	11.939	13.771	66.958	13.706	24.889	152.68	2.7118	19.277	0.0047772
-34.500	6.9941	undefined	11.946	13.783	66.987	50.000	0.020000	11.946	13.783	66.987	13.696	24.864	152.88	2.7009	19.313	0.0047862	50.000	0.020000	11.946	13.783	66.987	13.696	24.864	152.88	2.7009	19.313	0.0047862
-34.000	7.0110	undefined	11.953	13.794	67.016	50.000	0.020000	11.953	13.794	67.016	13.685	24.839	153.07	2.6900	19.349	0.0047952	50.000	0.020000	11.953	13.794	67.016	13.685	24.839	153.07	2.6900	19.349	0.0047952
-33.500	7.0280	undefined	11.960	13.805	67.044	50.000	0.020000	11.960	13.805	67.044	13.675	24.814	153.27	2.6792	19.386	0.0048043	50.000	0.020000	11.960	13.805	67.044	13.675	24.814	153.27	2.6792	19.386	0.0048043
-33.000	7.0449	undefined	11.967	13.816	67.073	50.000	0.020000	11.967	13.816	67.073	13.665	24.789	153.46	2.6686	19.422	0.0048133	50.000	0.020000	11.967	13.816	67.073	13.665	24.789	153.46	2.6686	19.422	0.0048133
-32.500	7.0618	undefined	11.973	13.828	67.101	50.000	0.020000	11.973	13.828	67.101	13.656	24.765	153.65	2.6579	19.458	0.0048223	50.000	0.020000	11.973	13.828	67.101	13.656	24.765	153.65	2.6579	19.458	0.0048223
-32.000	7.0787	undefined	11.980	13.839	67.129	50.000	0.020000	11.980	13.839	67.129	13.646	24.741	153.84	2.6474	19.494	0.0048313	50.000	0.020000	11.980	13.839	67.129	13.646	24.741	153.84	2.6474	19.494	0.0048313
-31.500	7.0956	undefined	11.987	13.850	67.158	50.000	0.020000	11.987	13.850	67.158	13.636	24.717	154.04	2.6369	19.531	0.0048404	50.000	0.020000	11.987	13.850	67.158	13.636	24.717	154.04	2.6369	19.531	0.0048404
-31.000	7.1125	undefined	11.994	13.861	67.186	50.000	0.020000	11.994	13.861	67.186	13.627	24.694	154.23	2.6265	19.567	0.0048494	50.000	0.020000	11.994	13.861	67.186	13.627	24.694	154.23	2.6265	19.567	0.0048494
-30.500	7.1294	undefined	12.001	13.873	67.214	50.000	0.020000	12.001	13.873	67.214	13.618	24.671	154.42	2.6162	19.603	0.0048584	50.000	0.020000	12.001	13.873	67.214	13.618	24.671	154.42	2.6162	19.603	0.0048584
-30.000	7.1463	undefined	12.007	13.884	67.242	50.000	0.020000	12.007	13.884	67.242	13.608	24.648	154.61	2.6060	19.640	0.0048674	50.000	0.020000	12.007	13.884	67.242	13.608	24.648	154.61	2.6060	19.640	0.0048674
-29.500	7.1632	undefined	12.014	13.895	67.270	50.000	0.020000	12.014	13.895	67.270	13.599	24.625	154.80	2.5958	19.676	0.0048764	50.000	0.020000	12.014	13.895	67.270	13.599	24.625	154.80	2.5958	19.676	0.0048764
-29.000	7.1801	undefined	12.021	13.906	67.298	50.000	0.020000	12.021	13.906	67.298	13.590	24.603	154.99	2.5857	19.712	0.0048854	50.000	0.020000	12.021	13.906	67.298	13.590	24.603	154.99	2.5857	19.712	0.0048854
-28.500	7.1970	undefined	12.028	13.918	67.326	50.000	0.020000	12.028	13.918	67.326	13.582	24.581	155.18	2.5757	19.748	0.0048944	50.000	0.020000	12.028	13.918	67.326	13.582	24.581	155.18	2.5757	19.748	0.0048944
-28.000	7.2138	undefined	12.035	13.929	67.353	50.000	0.020000	12.035	13.929	67.353	13.573	24.559	155.37	2.5657	19.785	0.0049034	50.000	0.020000	12.035	13.929	67.353	13.573	24.559	155.37	2.5657	19.785	0.0049034
-27.500	7.2307	undefined	12.041	13.940	67.381	50.000	0.020000	12.041	13.940	67.381	13.564	24.537	155.56	2.5558	19.821	0.0049124	50.000	0.020000	12.041	13.940	67.381	13.564	24.537	155.56	2.5558	19.821	0.0049124
-27.000	7.2476	undefined	12.048	13.951	67.409	50.000	0.020000	12.048	13.951	67.409	13.556	24.516	155.75	2.5460	19.857	0.0049214	50.000	0.020000	12.048	13.951	67.409	13.556	24.516	155.75	2.5460	19.857	0.0049214
-26.500	7.2644	undefined	12.055	13.962	67.436	50.000	0.020000	12.055	13.962	67.436	13.547	24.495	155.94	2.5363	19.893	0.0049304	50.000	0.020000	12.055	13.962	67.436	13.547	24.495	155.94	2.5363	19.893	0.0049304
-26.000	7.2813	undefined	12.062	13.974	67.464	50.000	0.020000	12.062	13.974	67.464	13.539	24.474	156.13	2.5266	19.930	0.0049394	50.000	0.020000	12.062	13.974	67.464	13.539	24.474	156.13	2.5266	19.930	0.0049394
-25.500	7.2981	undefined	12.068	13.985	67.491	50.000	0.020000	12.068	13.985	67.491	13.531	24.453	156.32	2.5169	19.966	0.0049484	50.000	0.020000	12.068	13.985	67.491	13.531	24.453	156.32	2.5169	19.966	0.0049484
-25.000	7.3150	undefined	12.075	13.996	67.518	50.000	0.020000	12.075	13.996	67.518	13.523	24.432	156.51	2.5074	20.002	0.0049574	50.000	0.020000	12.075	13.996	67.518	13.523	24.432	156.51	2.5074	20.002	0.0049574
-24.500	7.3318	undefined	12.082	14.007	67.545	50.000	0.020000	12.082	14.007	67.545	13.515	24.412	156.69	2.4979	20.039	0.0049664	50.000	0.020000	12.082	14.007	67.545	13.515	24.412	156.69	2.4979	20.039	0.0049664
-24.000	7.3486	undefined	12.089	14.018	67.572	50.000	0.020000	12.089	14.018	67.572	13.507	24.392	156.88	2.4885	20.075	0.0049753	50.000	0.020000	12.089	14.018	67.572	13.507	24.392	156.88	2.4885	20.075	0.0049753
-23.500	7.3655	undefined	12.096	14.030	67.600	50.000	0.020000	12.096	14.030	67.600	13.499	24.372	157.07	2.4791	20.111	0.0049843	50.000	0.020000	12.096	14.030	67.600	13.499	24.372	157.07	2.4791	20.111	0.0049843
-23.000	7.3823	undefined	12.102	14.041	67.627	50.000	0.020000	12.102	14.041	67.627	13.491	24.353	157.25	2.4698	20.147	0.0049933	50.000	0.020000	12.102	14.041	67.627	13.491	24.353	157.25	2.4698	20.147	0.0049933
-22.500	7.3991	undefined	12.109	14.052	67.654	50.000	0.020000	12.109	14.052	67.654	13.483	24.333	157.44	2.4606	20.184	0.0050022	50.000	0.020000	12.109	14.052	67.654	13.483	24.333	157.44	2.4606	20.184	0.0050022
-22.000	7.4160	undefined	12.116	14.063	67.680	50.000	0.020000	12.116	14.063	67.680	13.476	24.314	157.63	2.4514	20.220	0.0050112	50.000	0.020000	12.116	14.063	67.680	13.476	24.314	157.63	2.4514	20.220	0.0050112
-21.500	7.4328	undefined	12.122	14.074	67.707	50.000	0.020000	12.122	14.074	67.707	13.468	24.295	157.81	2.4423	20.256	0.0050202	50.000	0.020000	12.122	14.074	67.707	13.468	24.295	157.81	2.4423	20.256	0.0050202
-21.000	7.4496	undefined	12.129	14.085	67.734	50.000	0.020000	12.129	14.085	67.734	13.461	24.276	158.00	2.4332	20.292	0.0050291	50.000	0.020000	12.129	14.085	67.734	13.461	24.276	158.00	2.4332	20.292	0.0050291
-20.500	7.4664	undefined	12.136	14.097	67.761	50.000	0.020000	12.136	14.097	67.761	13.454	24.257	158.18	2.4242	20.329	0.0050381	50.000	0.020000	12.136	14.097	67.761	13.454	24.257	158.18	2.4242	20.329	0.0050381
-20.000	7.4832	undefined	12.143	14.108	67.787	50.000	0.020000	12.143	14.108	67.787	13.447	24.239	158.37	2.4153	20.365	0.0050470	50.000	0.020000	12.143	14.108	67.787	13.447	24.239	158.37	2.4153	20.365	0.0050470
-19.500	7.5000	undefined	12.149	14.119	67.814	50.000	0.020000	12.149	14.119	67.814	13.439	24.221	158.55	2.4064	20.401	0.0050560	50.000	0.020000	12.149	14.119	67.814	13.439	24.221	158.55	2.4064	20.401	0.0050560
-19.000	7.5168	undefined	12.156	14.130	67.840	50.000	0.020000	12.156	14.130	67.840	13.432	24.202	158.74	2.3976	20.437	0.0050649	50.000	0.020000	12.156	14.130	67.840	13.432	24.202	158.74	2.3976	20.437	0.0050649
-18.500	7.5336	undefined	12.163	14.141	67.867	50.000	0.020000	12.163	14.141	67.867	13.425	24.184	158.92	2.3888	20.474	0.0050738	50.000	0.020000	12.163	14.141	67.867	13.425	24.184	158.92	2.3888	20.474	0.0050738
-18.000	7.5504	undefined	12.170	14.152	67.893	50.000	0.020000	12.170	14.152	67.893	13.419	24.167	159.10	2.3801	20.510	0.0050828	50.000	0.020000	12.170	14.152	67.893	13.419	24.167	159.10	2.3801	20.510	0.0050828
-17.500	7.5672	undefined	12.176	14.163	67.919	50.000	0.020000	12.176	14.163	67.919	13.412	24.149	159.29	2.3714	20.546	0.0050917	50.000	0.020000	12.176	14.163	67.919	13.412	24.149	159.29	2.3714	20.546	0.0050917
-17.000	7.5840	undefined	12.183	14.174	67.945	50.000	0.020000	12.183	14.174	67.945	13.405	24.132	159.47	2.3628	20.582	0.0051006	50.000	0.020000	12.183	14.174	67.945	13.405	24.132	159.47	2.3628	20.582	0.0051006
-16.500	7.6007	undefined	12.190	14.185	67.971	50.000	0.020000	12.190	14.185	67.971	13.398	24.114	159.65	2.3543	20.619	0.0051096	50.000	0.020000	12.190	14.185	67.971	13.398	24.114	159.65	2.3543	20.619	0.0051096
-16.000	7.6175	undefined	12.196	14.197	67.998	50.000	0.020000	12.196	14.197	67.998	13.392	24.097	159.84	2.3458	20.655	0.0051185	50.000	0.020000	12.196	14.197	67.998	13.392	24.097	159.84	2.3458	20.655	0.0051185
-15.500	7.6343	undefined	12.203	14.208	68.024	50.000	0.020000	12.203	14.208	68.024	13.385	24.080	160.02	2.3373	20.691	0.0051274	50.000	0.020000	12.203	14.208	68.024	13.385	24.080	160.02	2.3373	20.691	0.0051274
-15.000	7.6511	undefined	12.210	14.219	68.049	50.000	0.020000	12.210	14.219	68.049	13.379	24.064	160.20	2.3290	20.727	0.0051363	50.000	0.020000	12.210	14.219	68.049	13.379	24.064	160.20	2.3290	20.727	0.0051363
-14.500	7.6678	undefined	12.216	14.230	68.075	50.000	0.020000	12.216	14.230	68.075	13.372	24.047	160.38	2.3206	20.763	0.0051452	50.000	0.020000	12.216	14.230	68.075	13.372	24.047	160.38	2.3206	20.763	0.0051452
-14.000	7.6846	undefined	12.223	14.241	68.101	50.000	0.020000	12.223	14.241	68.101	13.366	24.031	160.56	2.3123	20.800	0.0051541	50.000	0.020000	12.223	14.241	68.101	13.366	24.031	160.56	2.3123	20.800	0.0051541
-13.500	7.7013	undefined	12.230	14.252	68.127	50.000	0.020000	12.230	14.252	68.127	13.360	24.014	160.74	2.3041	20.836	0.0051630	50.000	0.020000	12.230	14.252	68.127	13.360	24.014	160.74	2.3041	20.836	0.0051630
-13.000	7.7181	undefined	12.236	14.263	68.153	50.000	0.020000	12.236	14.263	68.153	13.354	23.998	160.92	2.2959	20.872	0.0051720	50.000	0.020000	12.236	14.263	68.153	13.354	23.998	160.92	2.2959	20.872	0.0051720
-12.500	7.7348	undefined	12.243	14.274	68.178	50.000	0.020000	12.243	14.274	68.178	13.347	23.982	161.11	2.2878	20.908	0.0051808	50.000	0.020000	12.243	14.274	68.178	13.347	23.982	161.11	2.2878	20.908	0.0051808
-12.000	7.7516	undefined	12.250	14.285	68.204	50.000	0.020000	12.250	14.285	68.204	13.341	23.966	161.29	2.2797	20.945	0.0051897	50.000	0.020000	12.250	14.285	68.204	13.341	23.966	161.29	2.2797	20.945	0.0051897
-11.500	7.7683	undefined	12.256	14.296	68.229	50.000	0.020000	12.256	14.296	68.229	13.335	23.951	161.47	2.2717	20.981	0.0051986	50.000	0.020000	12.256	14.296	68.229	13.335	23.951	161.47	2.2717	20.981	0.0051986
-11.000	7.7851	undefined	12.263	14.307	68.255	50.000	0.020000	12.263	14.307	68.255	13.329	23.935	161.65	2.2637	21.017	0.0052075	50.000	0.020000	12.263	14.307	68.255	13.329	23.935	161.65	2.2637	21.017	0.0052075
-10.500	7.8018	undefined	12.270	14.318	68.280	50.000	0.020000	12.270	14.318	68.280	13.324	23.920	161.83	2.2558	21.053	0.0052164	50.000	0.020000	12.270	14.318	68.280	13.324	23.920	161.83	2.2558	21.053	0.0052164
-10.000	7.8186	undefined	12.276	14.330	68.306	50.000	0.020000	12.276	14.330	68.306	13.318	23.904	162.00	2.2479	21.089	0.0052253	50.000	0.020000	12.276	14.330	68.306	13.318	23.904	162.00	2.2479	21.089	0.0052253
-9.5000	7.8353	undefined	12.283	14.341	68.331	50.000	0.020000	12.283	14.341	68.331	13.312	23.889	162.18	2.2401	21.126	0.0052342	50.000	0.020000	12.283	14.341	68.331	13.312	23.889	162.18	2.2401	21.126	0.0052342
-9.0000	7.8520	undefined	12.290	14.352	68.356	50.000	0.020000	12.290	14.352	68.356	13.306	23.874	162.36	2.2323	21.162	0.0052430	50.000	0.020000	12.290	14.352	68.356	13.306	23.874	162.36	2.2323	21.162	0.0052430
-8.5000	7.8687	undefined	12.296	14.363	68.381	50.000	0.020000	12.296	14.363	68.381	13.301	23.859	162.54	2.2246	21.198	0.0052519	50.000	0.020000	12.296	14.363	68.381	13.301	23.859	162.54	2.2246	21.198	0.0052519
-8.0000	7.8855	undefined	12.303	14.374	68.406	50.000	0.020000	12.303	14.374	68.406	13.295	23.845	162.72	2.2169	21.234	0.0052608	50.000	0.020000	12.303	14.374	68.406	13.295	23.845	162.72	2.2169	21.234	0.0052608
-7.5000	7.9022	undefined	12.310	14.385	68.431	50.000	0.020000	12.310	14.385	68.431	13.290	23.830	162.90	2.2092	21.270	0.0052696	50.000	0.020000	12.310	14.385	68.431	13.290	23.830	162.90	2.2092	21.270	0.0052696
-7.0000	7.9189	undefined	12.316	14.396	68.456	50.000	0.020000	12.316	14.396	68.456	13.284	23.816	163.07	2.2016	21.306	0.0052785	50.000	0.020000	12.316	14.396	68.456	13.284	23.816	163.07	2.2016	21.306	0.0052785
-6.5000	7.9356	undefined	12.323	14.407	68.481	50.000	0.020000	12.323	14.407	68.481	13.279	23.801	163.25	2.1941	21.343	0.0052873	50.000	0.020000	12.323	14.407	68.481	13.279	23.801	163.25	2.1941	21.343	0.0052873
-6.0000	7.9523	undefined	12.330	14.418	68.506	50.000	0.020000	12.330	14.418	68.506	13.273	23.787	163.43	2.1865	21.379	0.0052962	50.000	0.020000	12.330	14.418	68.506	13.273	23.787	163.43	2.1865	21.379	0.0052962
-5.5000	7.9690	undefined	12.336	14.429	68.531	50.000	0.020000	12.336	14.429	68.531	13.268	23.773	163.61	2.1791	21.415	0.0053050	50.000	0.020000	12.336	14.429	68.531	13.268	23.773	163.61	2.1791	21.415	0.0053050
-5.0000	7.9857	undefined	12.343	14.440	68.556	50.000	0.020000	12.343	14.440	68.556	13.263	23.759	163.78	2.1716	21.451	0.0053139	50.000	0.020000	12.343	14.440	68.556	13.263	23.759	163.78	2.1716	21.451	0.0053139
-4.5000	8.0024	undefined	12.350	14.451	68.580	50.000	0.020000	12.350	14.451	68.580	13.258	23.745	163.96	2.1643	21.487	0.0053227	50.000	0.020000	12.350	14.451	68.580	13.258	23.745	163.96	2.1643	21.487	0.0053227
-4.0000	8.0191	undefined	12.356	14.462	68.605	50.000	0.020000	12.356	14.462	68.605	13.252	23.731	164.14	2.1569	21.523	0.0053316	50.000	0.020000	12.356	14.462	68.605	13.252	23.731	164.14	2.1569	21.523	0.0053316
-3.5000	8.0358	undefined	12.363	14.473	68.630	50.000	0.020000	12.363	14.473	68.630	13.247	23.718	164.31	2.1496	21.560	0.0053404	50.000	0.020000	12.363	14.473	68.630	13.247	23.718	164.31	2.1496	21.560	0.0053404
-3.0000	8.0525	undefined	12.369	14.484	68.654	50.000	0.020000	12.369	14.484	68.654	13.242	23.704	164.49	2.1424	21.596	0.0053492	50.000	0.020000	12.369	14.484	68.654	13.242	23.704	164.49	2.1424	21.596	0.0053492
-2.5000	8.0692	undefined	12.376	14.495	68.679	50.000	0.020000	12.376	14.495	68.679	13.237	23.691	164.66	2.1352	21.632	0.0053580	50.000	0.020000	12.376	14.495	68.679	13.237	23.691	164.66	2.1352	21.632	0.0053580
-2.0000	8.0859	undefined	12.383	14.506	68.703	50.000	0.020000	12.383	14.506	68.703	13.232	23.678	164.84	2.1280	21.668	0.0053669	50.000	0.020000	12.383	14.506	68.703	13.232	23.678	164.84	2.1280	21.668	0.0053669
-1.5000	8.1026	undefined	12.389	14.517	68.727	50.000	0.020000	12.389	14.517	68.727	13.227	23.664	165.01	2.1209	21.704	0.0053757	50.000	0.020000	12.389	14.517	68.727	13.227	23.664	165.01	2.1209	21.704	0.0053757
-1.0000	8.1193	undefined	12.396	14.528	68.752	50.000	0.020000	12.396	14.528	68.752	13.223	23.651	165.19	2.1138	21.740	0.0053845	50.000	0.020000	12.396	14.528	68.752	13.223	23.651	165.19	2.1138	21.740	0.0053845
-0.50000	8.1360	undefined	12.402	14.539	68.776	50.000	0.020000	12.402	14.539	68.776	13.218	23.638	165.36	2.1068	21.776	0.0053933	50.000	0.020000	12.402	14.539	68.776	13.218	23.638	165.36	2.1068	21.776	0.0053933
0.0000	8.1526	undefined	12.409	14.550	68.800	50.000	0.020000	12.409	14.550	68.800	13.213	23.625	165.54	2.0998	21.812	0.0054021	50.000	0.020000	12.409	14.550	68.800	13.213	23.625	165.54	2.0998	21.812	0.0054021
0.50000	8.1693	undefined	12.416	14.561	68.824	50.000	0.020000	12.416	14.561	68.824	13.208	23.613	165.71	2.0928	21.849	0.0054109	50.000	0.020000	12.416	14.561	68.824	13.208	23.613	165.71	2.0928	21.849	0.0054109
1.0000	8.1860	undefined	12.422	14.572	68.848	50.000	0.020000	12.422	14.572	68.848	13.204	23.600	165.89	2.0859	21.885	0.0054197	50.000	0.020000	12.422	14.572	68.848	13.204	23.600	165.89	2.0859	21.885	0.0054197
1.5000	8.2027	undefined	12.429	14.583	68.873	50.000	0.020000	12.429	14.583	68.873	13.199	23.588	166.06	2.0790	21.921	0.0054285	50.000	0.020000	12.429	14.583	68.873	13.199	23.588	166.06	2.0790	21.921	0.0054285
2.0000	8.2193	undefined	12.436	14.594	68.897	50.000	0.020000	12.436	14.594	68.897	13.194	23.575	166.23	2.0721	21.957	0.0054373	50.000	0.020000	12.436	14.594	68.897	13.194	23.575	166.23	2.0721	21.957	0.0054373
2.5000	8.2360	undefined	12.442	14.605	68.920	50.000	0.020000	12.442	14.605	68.920	13.190	23.563	166.41	2.0653	21.993	0.0054460	50.000	0.020000	12.442	14.605	68.920	13.190	23.563	166.41	2.0653	21.993	0.0054460
3.0000	8.2527	undefined	12.449	14.616	68.944	50.000	0.020000	12.449	14.616	68.944	13.185	23.551	166.58	2.0586	22.029	0.0054548	50.000	0.020000	12.449	14.616	68.944	13.185	23.551	166.58	2.0586	22.029	0.0054548
3.5000	8.2693	undefined	12.455	14.627	68.968	50.000	0.020000	12.455	14.627	68.968	13.181	23.538	166.75	2.0518	22.065	0.0054636	50.000	0.020000	12.455	14.627	68.968	13.181	23.538	166.75	2.0518	22.065	0.0054636
4.0000	8.2860	undefined	12.462	14.638	68.992	50.000	0.020000	12.462	14.638	68.992	13.176	23.526	166.92	2.0451	22.101	0.0054724	50.000	0.020000	12.462	14.638	68.992	13.176	23.526	166.92	2.0451	22.101	0.0054724
4.5000	8.3026	undefined	12.468	14.649	69.016	50.000	0.020000	12.468	14.649	69.016	13.172	23.515	167.10	2.0385	22.137	0.0054811	50.000	0.020000	12.468	14.649	69.016	13.172	23.515	167.10	2.0385	22.137	0.0054811
5.0000	8.3193	undefined	12.475	14.660	69.039	50.000	0.020000	12.475	14.660	69.039	13.168	23.503	167.27	2.0319	22.173	0.0054899	50.000	0.020000	12.475	14.660	69.039	13.168	23.503	167.27	2.0319	22.173	0.0054899
5.5000	8.3359	undefined	12.482	14.671	69.063	50.000	0.020000	12.482	14.671	69.063	13.163	23.491	167.44	2.0253	22.210	0.0054987	50.000	0.020000	12.482	14.671	69.063	13.163	23.491	167.44	2.0253	22.210	0.0054987
6.0000	8.3526	undefined	12.488	14.681	69.087	50.000	0.020000	12.488	14.681	69.087	13.159	23.479	167.61	2.0187	22.246	0.0055074	50.000	0.020000	12.488	14.681	69.087	13.159	23.479	167.61	2.0187	22.246	0.0055074
6.5000	8.3692	undefined	12.495	14.692	69.110	50.000	0.020000	12.495	14.692	69.110	13.155	23.468	167.78	2.0122	22.282	0.0055162	50.000	0.020000	12.495	14.692	69.110	13.155	23.468	167.78	2.0122	22.282	0.0055162
7.0000	8.3859	undefined	12.501	14.703	69.134	50.000	0.020000	12.501	14.703	69.134	13.151	23.456	167.95	2.0057	22.318	0.0055249	50.000	0.020000	12.501	14.703	69.134	13.151	23.456	167.95	2.0057	22.318	0.0055249
7.5000	8.4025	undefined	12.508	14.714	69.157	50.000	0.020000	12.508	14.714	69.157	13.146	23.445	168.13	1.9993	22.354	0.0055337	50.000	0.020000	12.508	14.714	69.157	13.146	23.445	168.13	1.9993	22.354	0.0055337
8.0000	8.4191	undefined	12.515	14.725	69.181	50.000	0.020000	12.515	14.725	69.181	13.142	23.434	168.30	1.9929	22.390	0.0055424	50.000	0.020000	12.515	14.725	69.181	13.142	23.434	168.30	1.9929	22.390	0.0055424
8.5000	8.4358	undefined	12.521	14.736	69.204	50.000	0.020000	12.521	14.736	69.204	13.138	23.422	168.47	1.9865	22.426	0.0055511	50.000	0.020000	12.521	14.736	69.204	13.138	23.422	168.47	1.9865	22.426	0.0055511
9.0000	8.4524	undefined	12.528	14.747	69.227	50.000	0.020000	12.528	14.747	69.227	13.134	23.411	168.64	1.9802	22.462	0.0055599	50.000	0.020000	12.528	14.747	69.227	13.134	23.411	168.64	1.9802	22.462	0.0055599
9.5000	8.4690	undefined	12.534	14.758	69.251	50.000	0.020000	12.534	14.758	69.251	13.130	23.400	168.81	1.9739	22.498	0.0055686	50.000	0.020000	12.534	14.758	69.251	13.130	23.400	168.81	1.9739	22.498	0.0055686
10.000	8.4857	undefined	12.541	14.769	69.274	50.000	0.020000	12.541	14.769	69.274	13.126	23.389	168.98	1.9676	22.534	0.0055773	50.000	0.020000	12.541	14.769	69.274	13.126	23.389	168.98	1.9676	22.534	0.0055773
10.500	8.5023	undefined	12.547	14.780	69.297	50.000	0.020000	12.547	14.780	69.297	13.122	23.378	169.15	1.9614	22.570	0.0055860	50.000	0.020000	12.547	14.780	69.297	13.122	23.378	169.15	1.9614	22.570	0.0055860
11.000	8.5189	undefined	12.554	14.791	69.320	50.000	0.020000	12.554	14.791	69.320	13.118	23.368	169.32	1.9552	22.606	0.0055947	50.000	0.020000	12.554	14.791	69.320	13.118	23.368	169.32	1.9552	22.606	0.0055947
11.500	8.5355	undefined	12.560	14.802	69.343	50.000	0.020000	12.560	14.802	69.343	13.115	23.357	169.49	1.9490	22.642	0.0056034	50.000	0.020000	12.560	14.802	69.343	13.115	23.357	169.49	1.9490	22.642	0.0056034
12.000	8.5522	undefined	12.567	14.813	69.366	50.000	0.020000	12.567	14.813	69.366	13.111	23.346	169.66	1.9429	22.678	0.0056121	50.000	0.020000	12.567	14.813	69.366	13.111	23.346	169.66	1.9429	22.678	0.0056121
12.500	8.5688	undefined	12.574	14.824	69.389	50.000	0.020000	12.574	14.824	69.389	13.107	23.336	169.82	1.9368	22.714	0.0056208	50.000	0.020000	12.574	14.824	69.389	13.107	23.336	169.82	1.9368	22.714	0.0056208
13.000	8.5854	undefined	12.580	14.835	69.412	50.000	0.020000	12.580	14.835	69.412	13.103	23.325	169.99	1.9307	22.750	0.0056295	50.000	0.020000	12.580	14.835	69.412	13.103	23.325	169.99	1.9307	22.750	0.0056295
13.500	8.6020	undefined	12.587	14.845	69.435	50.000	0.020000	12.587	14.845	69.435	13.099	23.315	170.16	1.9247	22.786	0.0056382	50.000	0.020000	12.587	14.845	69.435	13.099	23.315	170.16	1.9247	22.786	0.0056382
14.000	8.6186	undefined	12.593	14.856	69.458	50.000	0.020000	12.593	14.856	69.458	13.096	23.305	170.33	1.9187	22.822	0.0056469	50.000	0.020000	12.593	14.856	69.458	13.096	23.305	170.33	1.9187	22.822	0.0056469
14.500	8.6352	undefined	12.600	14.867	69.480	50.000	0.020000	12.600	14.867	69.480	13.092	23.294	170.50	1.9127	22.858	0.0056556	50.000	0.020000	12.600	14.867	69.480	13.092	23.294	170.50	1.9127	22.858	0.0056556
15.000	8.6518	undefined	12.606	14.878	69.503	50.000	0.020000	12.606	14.878	69.503	13.088	23.284	170.67	1.9068	22.894	0.0056643	50.000	0.020000	12.606	14.878	69.503	13.088	23.284	170.67	1.9068	22.894	0.0056643
15.500	8.6684	undefined	12.613	14.889	69.526	50.000	0.020000	12.613	14.889	69.526	13.085	23.274	170.83	1.9009	22.930	0.0056730	50.000	0.020000	12.613	14.889	69.526	13.085	23.274	170.83	1.9009	22.930	0.0056730
16.000	8.6851	undefined	12.619	14.900	69.548	50.000	0.020000	12.619	14.900	69.548	13.081	23.264	171.00	1.8950	22.966	0.0056816	50.000	0.020000	12.619	14.900	69.548	13.081	23.264	171.00	1.8950	22.966	0.0056816
16.500	8.7017	undefined	12.626	14.911	69.571	50.000	0.020000	12.626	14.911	69.571	13.078	23.254	171.17	1.8891	23.002	0.0056903	50.000	0.020000	12.626	14.911	69.571	13.078	23.254	171.17	1.8891	23.002	0.0056903
17.000	8.7183	undefined	12.632	14.922	69.594	50.000	0.020000	12.632	14.922	69.594	13.074	23.244	171.34	1.8833	23.038	0.0056989	50.000	0.020000	12.632	14.922	69.594	13.074	23.244	171.34	1.8833	23.038	0.0056989
17.500	8.7349	undefined	12.639	14.933	69.616	50.000	0.020000	12.639	14.933	69.616	13.071	23.235	171.50	1.8775	23.074	0.0057076	50.000	0.020000	12.639	14.933	69.616	13.071	23.235	171.50	1.8775	23.074	0.0057076
18.000	8.7514	undefined	12.646	14.944	69.639	50.000	0.020000	12.646	14.944	69.639	13.067	23.225	171.67	1.8718	23.110	0.0057163	50.000	0.020000	12.646	14.944	69.639	13.067	23.225	171.67	1.8718	23.110	0.0057163
18.500	8.7680	undefined	12.652	14.954	69.661	50.000	0.020000	12.652	14.954	69.661	13.064	23.215	171.84	1.8661	23.146	0.0057249	50.000	0.020000	12.652	14.954	69.661	13.064	23.215	171.84	1.8661	23.146	0.0057249
19.000	8.7846	undefined	12.659	14.965	69.683	50.000	0.020000	12.659	14.965	69.683	13.060	23.206	172.00	1.8604	23.182	0.0057336	50.000	0.020000	12.659	14.965	69.683	13.060	23.206	172.00	1.8604	23.182	0.0057336
19.500	8.8012	undefined	12.665	14.976	69.706	50.000	0.020000	12.665	14.976	69.706	13.057	23.196	172.17	1.8547	23.218	0.0057422	50.000	0.020000	12.665	14.976	69.706	13.057	23.196	172.17	1.8547	23.218	0.0057422
20.000	8.8178	undefined	12.672	14.987	69.728	50.000	0.020000	12.672	14.987	69.728	13.054	23.187	172.33	1.8491	23.254	0.0057508	50.000	0.020000	12.672	14.987	69.728	13.054	23.187	172.33	1.8491	23.254	0.0057508
20.500	8.8344	undefined	12.678	14.998	69.750	50.000	0.020000	12.678	14.998	69.750	13.050	23.177	172.50	1.8434	23.290	0.0057595	50.000	0.020000	12.678	14.998	69.750	13.050	23.177	172.50	1.8434	23.290	0.0057595
21.000	8.8510	undefined	12.685	15.009	69.772	50.000	0.020000	12.685	15.009	69.772	13.047	23.168	172.66	1.8379	23.326	0.0057681	50.000	0.020000	12.685	15.009	69.772	13.047	23.168	172.66	1.8379	23.326	0.0057681
21.500	8.8676	undefined	12.691	15.020	69.795	50.000	0.020000	12.691	15.020	69.795	13.044	23.159	172.83	1.8323	23.361	0.0057767	50.000	0.020000	12.691	15.020	69.795	13.044	23.159	172.83	1.8323	23.361	0.0057767
22.000	8.8841	undefined	12.698	15.031	69.817	50.000	0.020000	12.698	15.031	69.817	13.041	23.150	173.00	1.8268	23.397	0.0057853	50.000	0.020000	12.698	15.031	69.817	13.041	23.150	173.00	1.8268	23.397	0.0057853
22.500	8.9007	undefined	12.704	15.041	69.839	50.000	0.020000	12.704	15.041	69.839	13.037	23.141	173.16	1.8213	23.433	0.0057939	50.000	0.020000	12.704	15.041	69.839	13.037	23.141	173.16	1.8213	23.433	0.0057939
23.000	8.9173	undefined	12.711	15.052	69.861	50.000	0.020000	12.711	15.052	69.861	13.034	23.132	173.33	1.8158	23.469	0.0058026	50.000	0.020000	12.711	15.052	69.861	13.034	23.132	173.33	1.8158	23.469	0.0058026
23.500	8.9339	undefined	12.717	15.063	69.883	50.000	0.020000	12.717	15.063	69.883	13.031	23.123	173.49	1.8104	23.505	0.0058112	50.000	0.020000	12.717	15.063	69.883	13.031	23.123	173.49	1.8104	23.505	0.0058112
24.000	8.9504	undefined	12.724	15.074	69.905	50.000	0.020000	12.724	15.074	69.905	13.028	23.114	173.65	1.8050	23.541	0.0058198	50.000	0.020000	12.724	15.074	69.905	13.028	23.114	173.65	1.8050	23.541	0.0058198
24.500	8.9670	undefined	12.730	15.085	69.927	50.000	0.020000	12.730	15.085	69.927	13.025	23.105	173.82	1.7996	23.577	0.0058284	50.000	0.020000	12.730	15.085	69.927	13.025	23.105	173.82	1.7996	23.577	0.0058284
25.000	8.9836	undefined	12.737	15.096	69.948	50.000	0.020000	12.737	15.096	69.948	13.022	23.096	173.98	1.7942	23.613	0.0058370	50.000	0.020000	12.737	15.096	69.948	13.022	23.096	173.98	1.7942	23.613	0.0058370
25.500	9.0002	undefined	12.743	15.107	69.970	50.000	0.020000	12.743	15.107	69.970	13.019	23.087	174.15	1.7889	23.649	0.0058455	50.000	0.020000	12.743	15.107	69.970	13.019	23.087	174.15	1.7889	23.649	0.0058455
26.000	9.0167	undefined	12.750	15.118	69.992	50.000	0.020000	12.750	15.118	69.992	13.016	23.079	174.31	1.7836	23.684	0.0058541	50.000	0.020000	12.750	15.118	69.992	13.016	23.079	174.31	1.7836	23.684	0.0058541
26.500	9.0333	undefined	12.756	15.128	70.014	50.000	0.020000	12.756	15.128	70.014	13.013	23.070	174.47	1.7783	23.720	0.0058627	50.000	0.020000	12.756	15.128	70.014	13.013	23.070	174.47	1.7783	23.720	0.0058627
27.000	9.0498	undefined	12.763	15.139	70.036	50.000	0.020000	12.763	15.139	70.036	13.010	23.062	174.64	1.7731	23.756	0.0058713	50.000	0.020000	12.763	15.139	70.036	13.010	23.062	174.64	1.7731	23.756	0.0058713
27.500	9.0664	undefined	12.769	15.150	70.057	50.000	0.020000	12.769	15.150	70.057	13.007	23.053	174.80	1.7678	23.792	0.0058799	50.000	0.020000	12.769	15.150	70.057	13.007	23.053	174.80	1.7678	23.792	0.0058799
28.000	9.0830	undefined	12.776	15.161	70.079	50.000	0.020000	12.776	15.161	70.079	13.004	23.045	174.96	1.7626	23.828	0.0058884	50.000	0.020000	12.776	15.161	70.079	13.004	23.045	174.96	1.7626	23.828	0.0058884
28.500	9.0995	undefined	12.782	15.172	70.100	50.000	0.020000	12.782	15.172	70.100	13.001	23.036	175.13	1.7575	23.864	0.0058970	50.000	0.020000	12.782	15.172	70.100	13.001	23.036	175.13	1.7575	23.864	0.0058970
29.000	9.1161	undefined	12.789	15.183	70.122	50.000	0.020000	12.789	15.183	70.122	12.998	23.028	175.29	1.7523	23.899	0.0059055	50.000	0.020000	12.789	15.183	70.122	12.998	23.028	175.29	1.7523	23.899	0.0059055
29.500	9.1326	undefined	12.795	15.194	70.143	50.000	0.020000	12.795	15.194	70.143	12.995	23.020	175.45	1.7472	23.935	0.0059141	50.000	0.020000	12.795	15.194	70.143	12.995	23.020	175.45	1.7472	23.935	0.0059141
30.000	9.1492	undefined	12.802	15.204	70.165	50.000	0.020000	12.802	15.204	70.165	12.992	23.012	175.61	1.7421	23.971	0.0059227	50.000	0.020000	12.802	15.204	70.165	12.992	23.012	175.61	1.7421	23.971	0.0059227
