# Temperature (C)	Pressure (bar)	Quality (l+v)	Internal Energy (l+v, kJ/mol)	Enthalpy (l+v, kJ/mol)	Entropy (l+v, J/mol*K)	Density (l, kg/m3)	Volume (l, m3/kg)	Internal Energy (l, kJ/mol)	Enthalpy (l, kJ/mol)	Entropy (l, J/mol*K)	Cv (l, J/mol*K)	Cp (l, J/mol*K)	Sound Spd. (l, m/s)	Joule-Thomson (l, K/bar)	Viscosity (l, uPa*s)	Therm. Cond. (l, W/m*K)	Density (v, kg/m3)	Volume (v, m3/kg)	Internal Energy (v, kJ/mol)	Enthalpy (v, kJ/mol)	Entropy (v, J/mol*K)	Cv (v, J/mol*K)	Cp (v, J/mol*K)	Sound Spd. (v, m/s)	Joule-Thomson (v, K/bar)	Viscosity (v, uPa*s)	Therm. Cond. (v, W/m*K)
-100.00	1.5759	0.37205	4.4223	4.9395	28.563	2887.3	0.00034634	0.35637	0.36354	2.1352	21.289	44.876	620.14	-0.059488	438.65	0.067736	15.012	0.066612	11.285	12.663	73.170	13.735	23.759	131.68	5.4642	14.251	0.0033751
-99.500	1.6171	0.38103	4.5357	5.0665	29.217	2883.9	0.00034675	0.37873	0.38609	2.2642	21.258	44.901	618.71	-0.059276	435.68	0.067548	15.373	0.065049	11.289	12.670	73.002	13.755	23.812	131.81	5.4267	14.289	0.0033865
-99.000	1.6591	0.39018	4.6506	5.1951	29.878	2880.5	0.00034717	0.40110	0.40866	2.3929	21.228	44.927	617.28	-0.059061	432.73	0.067359	15.740	0.063531	11.292	12.676	72.835	13.775	23.865	131.93	5.3896	14.327	0.0033980
-98.500	1.7020	0.39949	4.7669	5.3255	30.545	2877.0	0.00034758	0.42348	0.43124	2.5212	21.197	44.953	615.85	-0.058844	429.81	0.067170	16.114	0.062058	11.296	12.683	72.669	13.795	23.919	132.06	5.3529	14.366	0.0034095
-98.000	1.7457	0.40897	4.8846	5.4576	31.218	2873.6	0.00034800	0.44587	0.45384	2.6493	21.167	44.980	614.42	-0.058623	426.91	0.066981	16.494	0.060627	11.299	12.689	72.505	13.815	23.974	132.19	5.3166	14.404	0.0034210
-97.500	1.7903	0.41861	5.0038	5.5915	31.898	2870.1	0.00034841	0.46827	0.47646	2.7771	21.137	45.008	612.98	-0.058399	424.04	0.066791	16.881	0.059237	11.303	12.695	72.341	13.835	24.029	132.31	5.2806	14.442	0.0034326
-97.000	1.8357	0.42843	5.1245	5.7271	32.584	2866.7	0.00034883	0.49068	0.49909	2.9045	21.108	45.036	611.54	-0.058173	421.20	0.066602	17.275	0.057887	11.306	12.702	72.178	13.856	24.085	132.44	5.2451	14.481	0.0034442
-96.500	1.8820	0.43843	5.2467	5.8645	33.276	2863.2	0.00034926	0.51310	0.52173	3.0317	21.078	45.065	610.10	-0.057943	418.38	0.066412	17.676	0.056575	11.310	12.708	72.016	13.877	24.142	132.56	5.2099	14.519	0.0034558
-96.000	1.9292	0.44860	5.3704	6.0037	33.976	2859.8	0.00034968	0.53554	0.54440	3.1586	21.049	45.094	608.66	-0.057711	415.58	0.066222	18.083	0.055300	11.313	12.714	71.855	13.898	24.199	132.68	5.1751	14.558	0.0034675
-95.500	1.9772	0.45894	5.4957	6.1446	34.682	2856.3	0.00035010	0.55799	0.56708	3.2852	21.019	45.125	607.22	-0.057475	412.80	0.066032	18.498	0.054060	11.317	12.720	71.695	13.919	24.257	132.81	5.1407	14.597	0.0034792
-95.000	2.0262	0.46947	5.6224	6.2874	35.394	2852.8	0.00035053	0.58045	0.58977	3.4115	20.990	45.155	605.78	-0.057236	410.05	0.065842	18.920	0.052855	11.320	12.726	71.536	13.940	24.316	132.93	5.1066	14.636	0.0034910
-94.500	2.0760	0.48018	5.7507	6.4321	36.113	2849.3	0.00035096	0.60292	0.61249	3.5375	20.962	45.187	604.34	-0.056994	407.33	0.065652	19.348	0.051684	11.323	12.732	71.378	13.961	24.375	133.05	5.0728	14.675	0.0035028
-94.000	2.1268	0.49107	5.8805	6.5786	36.839	2845.8	0.00035139	0.62541	0.63522	3.6633	20.933	45.218	602.89	-0.056750	404.62	0.065461	19.784	0.050545	11.327	12.738	71.221	13.983	24.435	133.16	5.0394	14.714	0.0035146
-93.500	2.1786	0.50215	6.0119	6.7269	37.571	2842.3	0.00035182	0.64790	0.65797	3.7888	20.904	45.251	601.44	-0.056502	401.94	0.065271	20.228	0.049437	11.330	12.744	71.064	14.005	24.496	133.28	5.0064	14.753	0.0035265
-93.000	2.2312	0.51342	6.1448	6.8772	38.310	2838.8	0.00035226	0.67042	0.68074	3.9140	20.876	45.284	599.99	-0.056250	399.28	0.065080	20.678	0.048360	11.333	12.750	70.909	14.026	24.558	133.40	4.9737	14.792	0.0035384
-92.500	2.2848	0.52487	6.2794	7.0293	39.056	2835.3	0.00035269	0.69294	0.70352	4.0389	20.848	45.318	598.54	-0.055996	396.64	0.064890	21.137	0.047311	11.336	12.756	70.754	14.048	24.620	133.51	4.9413	14.832	0.0035504
-92.000	2.3394	0.53652	6.4155	7.1834	39.808	2831.8	0.00035313	0.71548	0.72633	4.1636	20.820	45.353	597.09	-0.055738	394.02	0.064699	21.602	0.046291	11.339	12.761	70.600	14.071	24.683	133.63	4.9092	14.871	0.0035624
-91.500	2.3950	0.54837	6.5532	7.3393	40.567	2828.3	0.00035357	0.73804	0.74915	4.2880	20.792	45.388	595.64	-0.055477	391.43	0.064508	22.076	0.045298	11.342	12.767	70.447	14.093	24.747	133.74	4.8775	14.911	0.0035744
-91.000	2.4516	0.56041	6.6925	7.4972	41.333	2824.8	0.00035401	0.76060	0.77200	4.4122	20.764	45.423	594.18	-0.055213	388.85	0.064317	22.557	0.044332	11.346	12.772	70.295	14.116	24.811	133.85	4.8461	14.951	0.0035865
-90.500	2.5091	0.57266	6.8335	7.6571	42.106	2821.2	0.00035446	0.78319	0.79486	4.5360	20.737	45.460	592.72	-0.054946	386.30	0.064127	23.046	0.043392	11.349	12.778	70.143	14.138	24.877	133.96	4.8150	14.991	0.0035986
-90.000	2.5677	0.58510	6.9761	7.8189	42.886	2817.7	0.00035490	0.80578	0.81775	4.6597	20.709	45.497	591.26	-0.054675	383.77	0.063936	23.543	0.042476	11.352	12.783	69.992	14.161	24.943	134.07	4.7842	15.031	0.0036108
-89.500	2.6272	0.59775	7.1203	7.9827	43.672	2814.1	0.00035535	0.82840	0.84065	4.7831	20.682	45.535	589.80	-0.054400	381.25	0.063745	24.047	0.041584	11.354	12.789	69.843	14.184	25.010	134.18	4.7537	15.071	0.0036231
-89.000	2.6879	0.61060	7.2662	8.1485	44.466	2810.6	0.00035580	0.85102	0.86358	4.9062	20.655	45.573	588.34	-0.054122	378.76	0.063554	24.560	0.040716	11.357	12.794	69.693	14.208	25.077	134.29	4.7235	15.111	0.0036353
-88.500	2.7495	0.62367	7.4138	8.3162	45.266	2807.0	0.00035625	0.87367	0.88653	5.0291	20.628	45.612	586.88	-0.053841	376.29	0.063363	25.081	0.039870	11.360	12.799	69.545	14.231	25.146	134.39	4.6937	15.152	0.0036477
-88.000	2.8122	0.63695	7.5630	8.4861	46.073	2803.4	0.00035671	0.89633	0.90950	5.1517	20.601	45.652	585.41	-0.053556	373.84	0.063172	25.611	0.039046	11.363	12.805	69.398	14.255	25.215	134.50	4.6641	15.192	0.0036600
-87.500	2.8760	0.65044	7.7139	8.6579	46.887	2799.8	0.00035716	0.91900	0.93249	5.2741	20.574	45.692	583.94	-0.053268	371.40	0.062981	26.148	0.038244	11.366	12.810	69.251	14.278	25.285	134.60	4.6347	15.233	0.0036724
-87.000	2.9408	0.66414	7.8665	8.8318	47.708	2796.2	0.00035762	0.94170	0.95550	5.3963	20.548	45.734	582.47	-0.052976	368.99	0.062790	26.694	0.037462	11.368	12.815	69.105	14.302	25.356	134.70	4.6057	15.274	0.0036849
-86.500	3.0068	0.67807	8.0208	9.0078	48.536	2792.7	0.00035808	0.96440	0.97854	5.5182	20.522	45.776	581.00	-0.052681	366.59	0.062599	27.248	0.036699	11.371	12.820	68.959	14.326	25.427	134.81	4.5770	15.315	0.0036974
-86.000	3.0738	0.69222	8.1769	9.1858	49.371	2789.0	0.00035855	0.98713	1.0016	5.6399	20.495	45.818	579.53	-0.052381	364.21	0.062408	27.811	0.035956	11.374	12.825	68.815	14.350	25.500	134.91	4.5485	15.356	0.0037100
-85.500	3.1419	0.70659	8.3346	9.3659	50.212	2785.4	0.00035901	1.0099	1.0247	5.7613	20.469	45.861	578.05	-0.052079	361.85	0.062217	28.383	0.035232	11.376	12.830	68.671	14.375	25.573	135.01	4.5203	15.397	0.0037226
-85.000	3.2112	0.72118	8.4941	9.5482	51.061	2781.8	0.00035948	1.0326	1.0478	5.8826	20.444	45.905	576.58	-0.051772	359.51	0.062026	28.963	0.034526	11.379	12.834	68.528	14.399	25.647	135.11	4.4924	15.438	0.0037353
-84.500	3.2816	0.73601	8.6554	9.7325	51.917	2778.2	0.00035995	1.0554	1.0709	6.0036	20.418	45.950	575.10	-0.051462	357.19	0.061835	29.553	0.033838	11.381	12.839	68.385	14.424	25.722	135.20	4.4647	15.480	0.0037480
-84.000	3.3531	0.75107	8.8184	9.9190	52.780	2774.6	0.00036042	1.0782	1.0941	6.1244	20.392	45.996	573.62	-0.051147	354.88	0.061645	30.151	0.033166	11.384	12.844	68.244	14.449	25.798	135.30	4.4373	15.521	0.0037608
-83.500	3.4258	0.76636	8.9832	10.108	53.650	2770.9	0.00036089	1.1010	1.1173	6.2450	20.367	46.042	572.14	-0.050829	352.60	0.061454	30.758	0.032512	11.386	12.849	68.102	14.474	25.875	135.39	4.4102	15.563	0.0037736
-83.000	3.4997	0.78189	9.1497	10.298	54.527	2767.3	0.00036137	1.1239	1.1405	6.3653	20.342	46.089	570.65	-0.050507	350.33	0.061263	31.375	0.031873	11.389	12.853	67.962	14.499	25.953	135.49	4.3833	15.605	0.0037865
-82.500	3.5747	0.79766	9.3181	10.491	55.411	2763.6	0.00036185	1.1467	1.1637	6.4854	20.316	46.137	569.16	-0.050181	348.07	0.061072	32.000	0.031250	11.391	12.858	67.822	14.524	26.031	135.58	4.3566	15.647	0.0037994
-82.000	3.6509	0.81367	9.4882	10.687	56.303	2759.9	0.00036233	1.1696	1.1869	6.6054	20.291	46.185	567.68	-0.049852	345.84	0.060882	32.635	0.030642	11.393	12.862	67.683	14.549	26.111	135.67	4.3302	15.689	0.0038124
-81.500	3.7284	0.82993	9.6601	10.884	57.201	2756.3	0.00036281	1.1925	1.2102	6.7251	20.267	46.234	566.19	-0.049518	343.62	0.060691	33.279	0.030049	11.395	12.866	67.545	14.575	26.191	135.77	4.3041	15.731	0.0038254
-81.000	3.8070	0.84643	9.8339	11.083	58.106	2752.6	0.00036330	1.2154	1.2335	6.8446	20.242	46.284	564.69	-0.049180	341.41	0.060500	33.933	0.029470	11.398	12.871	67.407	14.601	26.273	135.86	4.2782	15.774	0.0038385
-80.500	3.8868	0.86319	10.010	11.285	59.019	2748.9	0.00036378	1.2383	1.2569	6.9639	20.217	46.335	563.20	-0.048838	339.23	0.060310	34.596	0.028905	11.400	12.875	67.269	14.627	26.355	135.94	4.2525	15.816	0.0038517
-80.000	3.9679	0.88020	10.187	11.489	59.939	2745.2	0.00036427	1.2613	1.2802	7.0830	20.193	46.387	561.70	-0.048491	337.06	0.060119	35.270	0.028353	11.402	12.879	67.133	14.653	26.438	136.03	4.2271	15.859	0.0038649
-79.500	4.0503	0.89747	10.366	11.696	60.866	2741.5	0.00036477	1.2842	1.3036	7.2019	20.169	46.439	560.20	-0.048141	334.90	0.059929	35.952	0.027815	11.404	12.883	66.997	14.679	26.522	136.12	4.2019	15.902	0.0038782
-79.000	4.1338	0.91499	10.547	11.904	61.800	2737.8	0.00036526	1.3072	1.3270	7.3206	20.145	46.493	558.70	-0.047786	332.76	0.059739	36.645	0.027289	11.406	12.887	66.861	14.705	26.608	136.20	4.1769	15.945	0.0038915
-78.500	4.2187	0.93278	10.730	12.115	62.741	2734.0	0.00036576	1.3302	1.3505	7.4392	20.121	46.547	557.20	-0.047427	330.64	0.059548	37.348	0.026775	11.408	12.891	66.727	14.732	26.694	136.29	4.1522	15.988	0.0039049
-78.000	4.3048	0.95084	10.915	12.328	63.690	2730.3	0.00036626	1.3533	1.3740	7.5575	20.097	46.602	555.69	-0.047063	328.53	0.059358	38.061	0.026274	11.410	12.895	66.592	14.758	26.781	136.37	4.1277	16.031	0.0039184
-77.500	4.3923	0.96916	11.102	12.544	64.646	2726.6	0.00036676	1.3763	1.3975	7.6756	20.073	46.657	554.18	-0.046695	326.44	0.059168	38.784	0.025784	11.412	12.898	66.459	14.785	26.869	136.45	4.1034	16.075	0.0039319
-77.000	4.4810	0.98776	11.291	12.762	65.609	2722.8	0.00036727	1.3994	1.4210	7.7936	20.050	46.714	552.67	-0.046323	324.36	0.058978	39.517	0.025305	11.413	12.902	66.326	14.812	26.958	136.54	4.0793	16.118	0.0039455
-76.500	4.5443	undefined	11.417	12.909	66.253	40.000	0.025000	11.417	12.909	66.253	14.817	26.991	136.67	4.0553	16.159	0.0039576	40.000	0.025000	11.417	12.909	66.253	14.817	26.991	136.67	4.0553	16.159	0.0039576
-76.000	4.5582	undefined	11.424	12.921	66.290	40.000	0.025000	11.424	12.921	66.290	14.783	26.919	136.91	4.0315	16.195	0.0039668	40.000	0.025000	11.424	12.921	66.290	14.783	26.919	136.91	4.0315	16.195	0.0039668
-75.500	4.5721	undefined	11.432	12.933	66.328	40.000	0.025000	11.432	12.933	66.328	14.749	26.849	137.14	4.0079	16.231	0.0039760	40.000	0.025000	11.432	12.933	66.328	14.749	26.849	137.14	4.0079	16.231	0.0039760
-75.000	4.5859	undefined	11.439	12.944	66.365	40.000	0.025000	11.439	12.944	66.365	14.716	26.781	137.37	3.9846	16.267	0.0039853	40.000	0.025000	11.439	12.944	66.365	14.716	26.781	137.37	3.9846	16.267	0.0039853
-74.500	4.5998	undefined	11.447	12.956	66.402	40.000	0.025000	11.447	12.956	66.402	14.684	26.714	137.60	3.9616	16.303	0.0039945	40.000	0.025000	11.447	12.956	66.402	14.684	26.714	137.60	3.9616	16.303	0.0039945
-74.000	4.6136	undefined	11.454	12.968	66.439	40.000	0.025000	11.454	12.968	66.439	14.653	26.649	137.84	3.9389	16.339	0.0040037	40.000	0.025000	11.454	12.968	66.439	14.653	26.649	137.84	3.9389	16.339	0.0040037
-73.500	4.6275	undefined	11.461	12.980	66.475	40.000	0.025000	11.461	12.980	66.475	14.622	26.585	138.07	3.9165	16.375	0.0040129	40.000	0.025000	11.461	12.980	66.475	14.622	26.585	138.07	3.9165	16.375	0.0040129
-73.000	4.6413	undefined	11.469	12.992	66.512	40.000	0.025000	11.469	12.992	66.512	14.592	26.523	138.29	3.8943	16.411	0.0040221	40.000	0.025000	11.469	12.992	66.512	14.592	26.523	138.29	3.8943	16.411	0.0040221
-72.500	4.6551	undefined	11.476	13.004	66.548	40.000	0.025000	11.476	13.004	66.548	14.563	26.462	138.52	3.8724	16.447	0.0040313	40.000	0.025000	11.476	13.004	66.548	14.563	26.462	138.52	3.8724	16.447	0.0040313
-72.000	4.6689	undefined	11.483	13.016	66.585	40.000	0.025000	11.483	13.016	66.585	14.535	26.402	138.75	3.8507	16.483	0.0040405	40.000	0.025000	11.483	13.016	66.585	14.535	26.402	138.75	3.8507	16.483	0.0040405
-71.500	4.6827	undefined	11.490	13.027	66.621	40.000	0.025000	11.490	13.027	66.621	14.507	26.343	138.98	3.8293	16.519	0.0040497	40.000	0.025000	11.490	13.027	66.621	14.507	26.343	138.98	3.8293	16.519	0.0040497
-71.000	4.6965	undefined	11.498	13.039	66.656	40.000	0.025000	11.498	13.039	66.656	14.480	26.286	139.20	3.8081	16.554	0.0040589	40.000	0.025000	11.498	13.039	66.656	14.480	26.286	139.20	3.8081	16.554	0.0040589
-70.500	4.7103	undefined	11.505	13.051	66.692	40.000	0.025000	11.505	13.051	66.692	14.454	26.230	139.43	3.7872	16.590	0.0040681	40.000	0.025000	11.505	13.051	66.692	14.454	26.230	139.43	3.7872	16.590	0.0040681
-70.000	4.7241	undefined	11.512	13.063	66.728	40.000	0.025000	11.512	13.063	66.728	14.428	26.176	139.65	3.7665	16.626	0.0040773	40.000	0.025000	11.512	13.063	66.728	14.428	26.176	139.65	3.7665	16.626	0.0040773
-69.500	4.7378	undefined	11.519	13.074	66.763	40.000	0.025000	11.519	13.074	66.763	14.403	26.122	139.87	3.7461	16.662	0.0040865	40.000	0.025000	11.519	13.074	66.763	14.403	26.122	139.87	3.7461	16.662	0.0040865
-69.000	4.7516	undefined	11.526	13.086	66.798	40.000	0.025000	11.526	13.086	66.798	14.378	26.070	140.09	3.7259	16.698	0.0040957	40.000	0.025000	11.526	13.086	66.798	14.378	26.070	140.09	3.7259	16.698	0.0040957
-68.500	4.7653	undefined	11.534	13.098	66.834	40.000	0.025000	11.534	13.098	66.834	14.354	26.018	140.32	3.7059	16.734	0.0041049	40.000	0.025000	11.534	13.098	66.834	14.354	26.018	140.32	3.7059	16.734	0.0041049
-68.000	4.7790	undefined	11.541	13.109	66.869	40.000	0.025000	11.541	13.109	66.869	14.331	25.968	140.54	3.6861	16.770	0.0041140	40.000	0.025000	11.541	13.109	66.869	14.331	25.968	140.54	3.6861	16.770	0.0041140
-67.500	4.7928	undefined	11.548	13.121	66.903	40.000	0.025000	11.548	13.121	66.903	14.308	25.918	140.76	3.6665	16.806	0.0041232	40.000	0.025000	11.548	13.121	66.903	14.308	25.918	140.76	3.6665	16.806	0.0041232
-67.000	4.8065	undefined	11.555	13.133	66.938	40.000	0.025000	11.555	13.133	66.938	14.285	25.870	140.98	3.6472	16.842	0.0041324	40.000	0.025000	11.555	13.133	66.938	14.285	25.870	140.98	3.6472	16.842	0.0041324
-66.500	4.8202	undefined	11.562	13.144	66.973	40.000	0.025000	11.562	13.144	66.973	14.263	25.822	141.19	3.6280	16.878	0.0041416	40.000	0.025000	11.562	13.144	66.973	14.263	25.822	141.19	3.6280	16.878	0.0041416
-66.000	4.8339	undefined	11.569	13.156	67.007	40.000	0.025000	11.569	13.156	67.007	14.241	25.776	141.41	3.6091	16.914	0.0041507	40.000	0.025000	11.569	13.156	67.007	14.241	25.776	141.41	3.6091	16.914	0.0041507
-65.500	4.8476	undefined	11.576	13.168	67.042	40.000	0.025000	11.576	13.168	67.042	14.220	25.730	141.63	3.5903	16.950	0.0041599	40.000	0.025000	11.576	13.168	67.042	14.220	25.730	141.63	3.5903	16.950	0.0041599
-65.000	4.8612	undefined	11.584	13.179	67.076	40.000	0.025000	11.584	13.179	67.076	14.199	25.685	141.84	3.5718	16.986	0.0041691	40.000	0.025000	11.584	13.179	67.076	14.199	25.685	141.84	3.5718	16.986	0.0041691
-64.500	4.8749	undefined	11.591	13.191	67.110	40.000	0.025000	11.591	13.191	67.110	14.179	25.641	142.06	3.5535	17.022	0.0041782	40.000	0.025000	11.591	13.191	67.110	14.179	25.641	142.06	3.5535	17.022	0.0041782
-64.000	4.8886	undefined	11.598	13.202	67.144	40.000	0.025000	11.598	13.202	67.144	14.159	25.598	142.27	3.5353	17.058	0.0041874	40.000	0.025000	11.598	13.202	67.144	14.159	25.598	142.27	3.5353	17.058	0.0041874
-63.500	4.9022	undefined	11.605	13.214	67.177	40.000	0.025000	11.605	13.214	67.177	14.140	25.556	142.49	3.5173	17.094	0.0041965	40.000	0.025000	11.605	13.214	67.177	14.140	25.556	142.49	3.5173	17.094	0.0041965
-63.000	4.9159	undefined	11.612	13.225	67.211	40.000	0.025000	11.612	13.225	67.211	14.121	25.514	142.70	3.4995	17.130	0.0042057	40.000	0.025000	11.612	13.225	67.211	14.121	25.514	142.70	3.4995	17.130	0.0042057
-62.500	4.9295	undefined	11.619	13.237	67.245	40.000	0.025000	11.619	13.237	67.245	14.102	25.473	142.92	3.4819	17.166	0.0042148	40.000	0.025000	11.619	13.237	67.245	14.102	25.473	142.92	3.4819	17.166	0.0042148
-62.000	4.9431	undefined	11.626	13.248	67.278	40.000	0.025000	11.626	13.248	67.278	14.084	25.433	143.13	3.4645	17.202	0.0042240	40.000	0.025000	11.626	13.248	67.278	14.084	25.433	143.13	3.4645	17.202	0.0042240
-61.500	4.9568	undefined	11.633	13.260	67.311	40.000	0.025000	11.633	13.260	67.311	14.066	25.394	143.34	3.4472	17.238	0.0042331	40.000	0.025000	11.633	13.260	67.311	14.066	25.394	143.34	3.4472	17.238	0.0042331
-61.000	4.9704	undefined	11.640	13.272	67.345	40.000	0.025000	11.640	13.272	67.345	14.048	25.355	143.55	3.4301	17.274	0.0042422	40.000	0.025000	11.640	13.272	67.345	14.048	25.355	143.55	3.4301	17.274	0.0042422
-60.500	4.9840	undefined	11.647	13.283	67.378	40.000	0.025000	11.647	13.283	67.378	14.031	25.317	143.76	3.4132	17.310	0.0042514	40.000	0.025000	11.647	13.283	67.378	14.031	25.317	143.76	3.4132	17.310	0.0042514
-60.000	4.9976	undefined	11.654	13.294	67.411	40.000	0.025000	11.654	13.294	67.411	14.014	25.279	143.97	3.3964	17.346	0.0042605	40.000	0.025000	11.654	13.294	67.411	14.014	25.279	143.97	3.3964	17.346	0.0042605
-59.500	5.0112	undefined	11.661	13.306	67.443	40.000	0.025000	11.661	13.306	67.443	13.997	25.242	144.18	3.3798	17.382	0.0042696	40.000	0.025000	11.661	13.306	67.443	13.997	25.242	144.18	3.3798	17.382	0.0042696
-59.000	5.0248	undefined	11.668	13.317	67.476	40.000	0.025000	11.668	13.317	67.476	13.981	25.206	144.39	3.3634	17.419	0.0042788	40.000	0.025000	11.668	13.317	67.476	13.981	25.206	144.39	3.3634	17.419	0.0042788
-58.500	5.0384	undefined	11.675	13.329	67.509	40.000	0.025000	11.675	13.329	67.509	13.965	25.170	144.60	3.3471	17.455	0.0042879	40.000	0.025000	11.675	13.329	67.509	13.965	25.170	144.60	3.3471	17.455	0.0042879
-58.000	5.0520	undefined	11.682	13.340	67.541	40.000	0.025000	11.682	13.340	67.541	13.949	25.135	144.80	3.3310	17.491	0.0042970	40.000	0.025000	11.682	13.340	67.541	13.949	25.135	144.80	3.3310	17.491	0.0042970
-57.500	5.0655	undefined	11.689	13.352	67.573	40.000	0.025000	11.689	13.352	67.573	13.934	25.101	145.01	3.3150	17.527	0.0043061	40.000	0.025000	11.689	13.352	67.573	13.934	25.101	145.01	3.3150	17.527	0.0043061
-57.000	5.0791	undefined	11.696	13.363	67.606	40.000	0.025000	11.696	13.363	67.606	13.919	25.067	145.22	3.2991	17.563	0.0043152	40.000	0.025000	11.696	13.363	67.606	13.919	25.067	145.22	3.2991	17.563	0.0043152
-56.500	5.0927	undefined	11.703	13.375	67.638	40.000	0.025000	11.703	13.375	67.638	13.904	25.034	145.42	3.2835	17.599	0.0043243	40.000	0.025000	11.703	13.375	67.638	13.904	25.034	145.42	3.2835	17.599	0.0043243
-56.000	5.1062	undefined	11.710	13.386	67.670	40.000	0.025000	11.710	13.386	67.670	13.889	25.001	145.63	3.2679	17.635	0.0043335	40.000	0.025000	11.710	13.386	67.670	13.889	25.001	145.63	3.2679	17.635	0.0043335
-55.500	5.1198	undefined	11.717	13.397	67.702	40.000	0.025000	11.717	13.397	67.702	13.875	24.968	145.83	3.2525	17.671	0.0043426	40.000	0.025000	11.717	13.397	67.702	13.875	24.968	145.83	3.2525	17.671	0.0043426
-55.000	5.1333	undefined	11.724	13.409	67.734	40.000	0.025000	11.724	13.409	67.734	13.861	24.936	146.04	3.2373	17.707	0.0043517	40.000	0.025000	11.724	13.409	67.734	13.861	24.936	146.04	3.2373	17.707	0.0043517
-54.500	5.1469	undefined	11.731	13.420	67.765	40.000	0.025000	11.731	13.420	67.765	13.847	24.905	146.24	3.2221	17.743	0.0043608	40.000	0.025000	11.731	13.420	67.765	13.847	24.905	146.24	3.2221	17.743	0.0043608
-54.000	5.1604	undefined	11.738	13.431	67.797	40.000	0.025000	11.738	13.431	67.797	13.833	24.874	146.45	3.2072	17.779	0.0043699	40.000	0.025000	11.738	13.431	67.797	13.833	24.874	146.45	3.2072	17.779	0.0043699
-53.500	5.1739	undefined	11.745	13.443	67.828	40.000	0.025000	11.745	13.443	67.828	13.820	24.844	146.65	3.1923	17.815	0.0043790	40.000	0.025000	11.745	13.443	67.828	13.820	24.844	146.65	3.1923	17.815	0.0043790
-53.000	5.1874	undefined	11.751	13.454	67.860	40.000	0.025000	11.751	13.454	67.860	13.806	24.814	146.85	3.1776	17.851	0.0043880	40.000	0.025000	11.751	13.454	67.860	13.806	24.814	146.85	3.1776	17.851	0.0043880
-52.500	5.2010	undefined	11.758	13.465	67.891	40.000	0.025000	11.758	13.465	67.891	13.793	24.784	147.05	3.1630	17.887	0.0043971	40.000	0.025000	11.758	13.465	67.891	13.793	24.784	147.05	3.1630	17.887	0.0043971
-52.000	5.2145	undefined	11.765	13.477	67.922	40.000	0.025000	11.765	13.477	67.922	13.781	24.755	147.26	3.1485	17.924	0.0044062	40.000	0.025000	11.765	13.477	67.922	13.781	24.755	147.26	3.1485	17.924	0.0044062
-51.500	5.2280	undefined	11.772	13.488	67.953	40.000	0.025000	11.772	13.488	67.953	13.768	24.726	147.46	3.1342	17.960	0.0044153	40.000	0.025000	11.772	13.488	67.953	13.768	24.726	147.46	3.1342	17.960	0.0044153
-51.000	5.2415	undefined	11.779	13.499	67.984	40.000	0.025000	11.779	13.499	67.984	13.756	24.698	147.66	3.1200	17.996	0.0044244	40.000	0.025000	11.779	13.499	67.984	13.756	24.698	147.66	3.1200	17.996	0.0044244
-50.500	5.2550	undefined	11.786	13.511	68.015	40.000	0.025000	11.786	13.511	68.015	13.743	24.670	147.86	3.1059	18.032	0.0044335	40.000	0.025000	11.786	13.511	68.015	13.743	24.670	147.86	3.1059	18.032	0.0044335
-50.000	5.2685	undefined	11.793	13.522	68.046	40.000	0.025000	11.793	13.522	68.046	13.731	24.642	148.06	3.0919	18.068	0.0044425	40.000	0.025000	11.793	13.522	68.046	13.731	24.642	148.06	3.0919	18.068	0.0044425
-49.500	5.2819	undefined	11.800	13.533	68.077	40.000	0.025000	11.800	13.533	68.077	13.720	24.615	148.26	3.0781	18.104	0.0044516	40.000	0.025000	11.800	13.533	68.077	13.720	24.615	148.26	3.0781	18.104	0.0044516
-49.000	5.2954	undefined	11.806	13.545	68.108	40.000	0.025000	11.806	13.545	68.108	13.708	24.588	148.46	3.0643	18.140	0.0044607	40.000	0.025000	11.806	13.545	68.108	13.708	24.588	148.46	3.0643	18.140	0.0044607
-48.500	5.3089	undefined	11.813	13.556	68.138	40.000	0.025000	11.813	13.556	68.138	13.697	24.562	148.66	3.0507	18.176	0.0044698	40.000	0.025000	11.813	13.556	68.138	13.697	24.562	148.66	3.0507	18.176	0.0044698
-48.000	5.3224	undefined	11.820	13.567	68.169	40.000	0.025000	11.820	13.567	68.169	13.685	24.536	148.85	3.0372	18.212	0.0044788	40.000	0.025000	11.820	13.567	68.169	13.685	24.536	148.85	3.0372	18.212	0.0044788
-47.500	5.3359	undefined	11.827	13.578	68.199	40.000	0.025000	11.827	13.578	68.199	13.674	24.510	149.05	3.0238	18.248	0.0044879	40.000	0.025000	11.827	13.578	68.199	13.674	24.510	149.05	3.0238	18.248	0.0044879
-47.000	5.3493	undefined	11.834	13.590	68.229	40.000	0.025000	11.834	13.590	68.229	13.663	24.485	149.25	3.0105	18.284	0.0044969	40.000	0.025000	11.834	13.590	68.229	13.663	24.485	149.25	3.0105	18.284	0.0044969
-46.500	5.3628	undefined	11.841	13.601	68.259	40.000	0.025000	11.841	13.601	68.259	13.653	24.460	149.45	2.9973	18.321	0.0045060	40.000	0.025000	11.841	13.601	68.259	13.653	24.460	149.45	2.9973	18.321	0.0045060
-46.000	5.3762	undefined	11.847	13.612	68.289	40.000	0.025000	11.847	13.612	68.289	13.642	24.435	149.64	2.9843	18.357	0.0045151	40.000	0.025000	11.847	13.612	68.289	13.642	24.435	149.64	2.9843	18.357	0.0045151
-45.500	5.3897	undefined	11.854	13.623	68.319	40.000	0.025000	11.854	13.623	68.319	13.631	24.411	149.84	2.9713	18.393	0.0045241	40.000	0.025000	11.854	13.623	68.319	13.631	24.411	149.84	2.9713	18.393	0.0045241
-45.000	5.4031	undefined	11.861	13.635	68.349	40.000	0.025000	11.861	13.635	68.349	13.621	24.387	150.03	2.9585	18.429	0.0045332	40.000	0.025000	11.861	13.635	68.349	13.621	24.387	150.03	2.9585	18.429	0.0045332
-44.500	5.4166	undefined	11.868	13.646	68.379	40.000	0.025000	11.868	13.646	68.379	13.611	24.363	150.23	2.9457	18.465	0.0045422	40.000	0.025000	11.868	13.646	68.379	13.611	24.363	150.23	2.9457	18.465	0.0045422
-44.000	5.4300	undefined	11.875	13.657	68.409	40.000	0.025000	11.875	13.657	68.409	13.601	24.340	150.42	2.9330	18.501	0.0045512	40.000	0.025000	11.875	13.657	68.409	13.601	24.340	150.42	2.9330	18.501	0.0045512
-43.500	5.4434	undefined	11.882	13.668	68.438	40.000	0.025000	11.882	13.668	68.438	13.591	24.316	150.62	2.9205	18.537	0.0045603	40.000	0.025000	11.882	13.668	68.438	13.591	24.316	150.62	2.9205	18.537	0.0045603
-43.000	5.4569	undefined	11.888	13.679	68.468	40.000	0.025000	11.888	13.679	68.468	13.581	24.294	150.81	2.9080	18.573	0.0045693	40.000	0.025000	11.888	13.679	68.468	13.581	24.294	150.81	2.9080	18.573	0.0045693
-42.500	5.4703	undefined	11.895	13.691	68.497	40.000	0.025000	11.895	13.691	68.497	13.572	24.271	151.01	2.8957	18.609	0.0045784	40.000	0.025000	11.895	13.691	68.497	13.572	24.271	151.01	2.8957	18.609	0.0045784
-42.000	5.4837	undefined	11.902	13.702	68.527	40.000	0.025000	11.902	13.702	68.527	13.562	24.249	151.20	2.8834	18.646	0.0045874	40.000	0.025000	11.902	13.702	68.527	13.562	24.249	151.20	2.8834	18.646	0.0045874
-41.500	5.4971	undefined	11.909	13.713	68.556	40.000	0.025000	11.909	13.713	68.556	13.553	24.227	151.39	2.8713	18.682	0.0045964	40.000	0.025000	11.909	13.713	68.556	13.553	24.227	151.39	2.8713	18.682	0.0045964
-41.000	5.5105	undefined	11.915	13.724	68.585	40.000	0.025000	11.915	13.724	68.585	13.544	24.205	151.59	2.8592	18.718	0.0046054	40.000	0.025000	11.915	13.724	68.585	13.544	24.205	151.59	2.8592	18.718	0.0046054
-40.500	5.5240	undefined	11.922	13.735	68.614	40.000	0.025000	11.922	13.735	68.614	13.535	24.183	151.78	2.8472	18.754	0.0046145	40.000	0.025000	11.922	13.735	68.614	13.535	24.183	151.78	2.8472	18.754	0.0046145
-40.000	5.5374	undefined	11.929	13.747	68.643	40.000	0.025000	11.929	13.747	68.643	13.526	24.162	151.97	2.8353	18.790	0.0046235	40.000	0.025000	11.929	13.747	68.643	13.526	24.162	151.97	2.8353	18.790	0.0046235
-39.500	5.5508	undefined	11.936	13.758	68.672	40.000	0.025000	11.936	13.758	68.672	13.517	24.141	152.16	2.8235	18.826	0.0046325	40.000	0.025000	11.936	13.758	68.672	13.517	24.141	152.16	2.8235	18.826	0.0046325
-39.000	5.5642	undefined	11.942	13.769	68.701	40.000	0.025000	11.942	13.769	68.701	13.508	24.120	152.35	2.8118	18.862	0.0046415	40.000	0.025000	11.942	13.769	68.701	13.508	24.120	152.35	2.8118	18.862	0.0046415
-38.500	5.5776	undefined	11.949	13.780	68.730	40.000	0.025000	11.949	13.780	68.730	13.500	24.100	152.54	2.8002	18.898	0.0046505	40.000	0.025000	11.949	13.780	68.730	13.500	24.100	152.54	2.8002	18.898	0.0046505
-38.000	5.5910	undefined	11.956	13.791	68.759	40.000	0.025000	11.956	13.791	68.759	13.491	24.080	152.73	2.7887	18.935	0.0046596	40.000	0.025000	11.956	13.791	68.759	13.491	24.080	152.73	2.7887	18.935	0.0046596
-37.500	5.6043	undefined	11.963	13.802	68.788	40.000	0.025000	11.963	13.802	68.788	13.483	24.060	152.92	2.7772	18.971	0.0046686	40.000	0.025000	11.963	13.802	68.788	13.483	24.060	152.92	2.7772	18.971	0.0046686
-37.000	5.6177	undefined	11.969	13.813	68.816	40.000	0.025000	11.969	13.813	68.816	13.474	24.040	153.11	2.7659	19.007	0.0046776	40.000	0.025000	11.969	13.813	68.816	13.474	24.040	153.11	2.7659	19.007	0.0046776
-36.500	5.6311	undefined	11.976	13.825	68.845	40.000	0.025000	11.976	13.825	68.845	13.466	24.020	153.30	2.7546	19.043	0.0046866	40.000	0.025000	11.976	13.825	68.845	13.466	24.020	153.30	2.7546	19.043	0.0046866
-36.000	5.6445	undefined	11.983	13.836	68.873	40.000	0.025000	11.983	13.836	68.873	13.458	24.001	153.49	2.7434	19.079	0.0046956	40.000	0.025000	11.983	13.836	68.873	13.458	24.001	153.49	2.7434	19.079	0.0046956
-35.500	5.6579	undefined	11.990	13.847	68.901	40.000	0.025000	11.990	13.847	68.901	13.450	23.982	153.68	2.7323	19.115	0.0047046	40.000	0.025000	11.990	13.847	68.901	13.450	23.982	153.68	2.7323	19.115	0.0047046
-35.000	5.6712	undefined	11.996	13.858	68.930	40.000	0.025000	11.996	13.858	68.930	13.442	23.963	153.87	2.7212	19.151	0.0047136	40.000	0.025000	11.996	13.858	68.930	13.442	23.963	153.87	2.7212	19.151	0.0047136
-34.500	5.6846	undefined	12.003	13.869	68.958	40.000	0.025000	12.003	13.869	68.958	13.435	23.944	154.06	2.7103	19.187	0.0047226	40.000	0.025000	12.003	13.869	68.958	13.435	23.944	154.06	2.7103	19.187	0.0047226
-34.000	5.6980	undefined	12.010	13.880	68.986	40.000	0.025000	12.010	13.880	68.986	13.427	23.926	154.25	2.6994	19.223	0.0047315	40.000	0.025000	12.010	13.880	68.986	13.427	23.926	154.25	2.6994	19.223	0.0047315
-33.500	5.7113	undefined	12.017	13.891	69.014	40.000	0.025000	12.017	13.891	69.014	13.419	23.907	154.43	2.6886	19.260	0.0047405	40.000	0.025000	12.017	13.891	69.014	13.419	23.907	154.43	2.6886	19.260	0.0047405
-33.000	5.7247	undefined	12.023	13.902	69.042	40.000	0.025000	12.023	13.902	69.042	13.412	23.889	154.62	2.6779	19.296	0.0047495	40.000	0.025000	12.023	13.902	69.042	13.412	23.889	154.62	2.6779	19.296	0.0047495
-32.500	5.7380	undefined	12.030	13.913	69.070	40.000	0.025000	12.030	13.913	69.070	13.404	23.871	154.81	2.6673	19.332	0.0047585	40.000	0.025000	12.030	13.913	69.070	13.404	23.871	154.81	2.6673	19.332	0.0047585
-32.000	5.7514	undefined	12.037	13.924	69.098	40.000	0.025000	12.037	13.924	69.098	13.397	23.853	154.99	2.6567	19.368	0.0047675	40.000	0.025000	12.037	13.924	69.098	13.397	23.853	154.99	2.6567	19.368	0.0047675
-31.500	5.7647	undefined	12.043	13.936	69.125	40.000	0.025000	12.043	13.936	69.125	13.390	23.836	155.18	2.6462	19.404	0.0047764	40.000	0.025000	12.043	13.936	69.125	13.390	23.836	155.18	2.6462	19.404	0.0047764
-31.000	5.7781	undefined	12.050	13.947	69.153	40.000	0.025000	12.050	13.947	69.153	13.383	23.819	155.37	2.6358	19.440	0.0047854	40.000	0.025000	12.050	13.947	69.153	13.383	23.819	155.37	2.6358	19.440	0.0047854
-30.500	5.7914	undefined	12.057	13.958	69.181	40.000	0.025000	12.057	13.958	69.181	13.376	23.801	155.55	2.6255	19.476	0.0047944	40.000	0.025000	12.057	13.958	69.181	13.376	23.801	155.55	2.6255	19.476	0.0047944
-30.000	5.8048	undefined	12.063	13.969	69.208	40.000	0.025000	12.063	13.969	69.208	13.369	23.784	155.74	2.6152	19.512	0.0048033	40.000	0.025000	12.063	13.969	69.208	13.369	23.784	155.74	2.6152	19.512	0.0048033
-29.500	5.8181	undefined	12.070	13.980	69.236	40.000	0.025000	12.070	13.980	69.236	13.362	23.768	155.92	2.6050	19.549	0.0048123	40.000	0.025000	12.070	13.980	69.236	13.362	23.768	155.92	2.6050	19.549	0.0048123
-29.000	5.8314	undefined	12.077	13.991	69.263	40.000	0.025000	12.077	13.991	69.263	13.355	23.751	156.11	2.5949	19.585	0.0048213	40.000	0.025000	12.077	13.991	69.263	13.355	23.751	156.11	2.5949	19.585	0.0048213
-28.500	5.8448	undefined	12.083	14.002	69.290	40.000	0.025000	12.083	14.002	69.290	13.348	23.735	156.29	2.5848	19.621	0.0048302	40.000	0.025000	12.083	14.002	69.290	13.348	23.735	156.29	2.5848	19.621	0.0048302
-28.000	5.8581	undefined	12.090	14.013	69.318	40.000	0.025000	12.090	14.013	69.318	13.342	23.718	156.48	2.5748	19.657	0.0048392	40.000	0.025000	12.090	14.013	69.318	13.342	23.718	156.48	2.5748	19.657	0.0048392
-27.500	5.8714	undefined	12.097	14.024	69.345	40.000	0.025000	12.097	14.024	69.345	13.335	23.702	156.66	2.5649	19.693	0.0048481	40.000	0.025000	12.097	14.024	69.345	13.335	23.702	156.66	2.5649	19.693	0.0048481
-27.000	5.8848	undefined	12.103	14.035	69.372	40.000	0.025000	12.103	14.035	69.372	13.329	23.686	156.84	2.5551	19.729	0.0048571	40.000	0.025000	12.103	14.035	69.372	13.329	23.686	156.84	2.5551	19.729	0.0048571
-26.500	5.8981	undefined	12.110	14.046	69.399	40.000	0.025000	12.110	14.046	69.399	13.322	23.670	157.03	2.5453	19.765	0.0048660	40.000	0.025000	12.110	14.046	69.399	13.322	23.670	157.03	2.5453	19.765	0.0048660
-26.000	5.9114	undefined	12.117	14.057	69.426	40.000	0.025000	12.117	14.057	69.426	13.316	23.655	157.21	2.5356	19.801	0.0048750	40.000	0.025000	12.117	14.057	69.426	13.316	23.655	157.21	2.5356	19.801	0.0048750
-25.500	5.9247	undefined	12.123	14.068	69.453	40.000	0.025000	12.123	14.068	69.453	13.310	23.639	157.39	2.5259	19.837	0.0048839	40.000	0.025000	12.123	14.068	69.453	13.310	23.639	157.39	2.5259	19.837	0.0048839
-25.000	5.9380	undefined	12.130	14.079	69.480	40.000	0.025000	12.130	14.079	69.480	13.303	23.624	157.58	2.5163	19.874	0.0048929	40.000	0.025000	12.130	14.079	69.480	13.303	23.624	157.58	2.5163	19.874	0.0048929
-24.500	5.9513	undefined	12.137	14.090	69.506	40.000	0.025000	12.137	14.090	69.506	13.297	23.609	157.76	2.5068	19.910	0.0049018	40.000	0.025000	12.137	14.090	69.506	13.297	23.609	157.76	2.5068	19.910	0.0049018
-24.000	5.9646	undefined	12.143	14.101	69.533	40.000	0.025000	12.143	14.101	69.533	13.291	23.594	157.94	2.4974	19.946	0.0049107	40.000	0.025000	12.143	14.101	69.533	13.291	23.594	157.94	2.4974	19.946	0.0049107
-23.500	5.9779	undefined	12.150	14.112	69.560	40.000	0.025000	12.150	14.112	69.560	13.285	23.579	158.12	2.4880	19.982	0.0049196	40.000	0.025000	12.150	14.112	69.560	13.285	23.579	158.12	2.4880	19.982	0.0049196
-23.000	5.9912	undefined	12.157	14.123	69.586	40.000	0.025000	12.157	14.123	69.586	13.279	23.564	158.30	2.4786	20.018	0.0049286	40.000	0.025000	12.157	14.123	69.586	13.279	23.564	158.30	2.4786	20.018	0.0049286
-22.500	6.0045	undefined	12.163	14.134	69.613	40.000	0.025000	12.163	14.134	69.613	13.273	23.549	158.48	2.4694	20.054	0.0049375	40.000	0.025000	12.163	14.134	69.613	13.273	23.549	158.48	2.4694	20.054	0.0049375
-22.000	6.0178	undefined	12.170	14.145	69.639	40.000	0.025000	12.170	14.145	69.639	13.268	23.535	158.67	2.4602	20.090	0.0049464	40.000	0.025000	12.170	14.145	69.639	13.268	23.535	158.67	2.4602	20.090	0.0049464
-21.500	6.0311	undefined	12.177	14.156	69.666	40.000	0.025000	12.177	14.156	69.666	13.262	23.521	158.85	2.4510	20.126	0.0049553	40.000	0.025000	12.177	14.156	69.666	13.262	23.521	158.85	2.4510	20.126	0.0049553
-21.000	6.0444	undefined	12.183	14.167	69.692	40.000	0.025000	12.183	14.167	69.692	13.256	23.506	159.03	2.4419	20.162	0.0049642	40.000	0.025000	12.183	14.167	69.692	13.256	23.506	159.03	2.4419	20.162	0.0049642
-20.500	6.0577	undefined	12.190	14.178	69.718	40.000	0.025000	12.190	14.178	69.718	13.251	23.492	159.21	2.4329	20.199	0.0049732	40.000	0.025000	12.190	14.178	69.718	13.251	23.492	159.21	2.4329	20.199	0.0049732
-20.000	6.0710	undefined	12.196	14.189	69.744	40.000	0.025000	12.196	14.189	69.744	13.245	23.479	159.39	2.4239	20.235	0.0049821	40.000	0.025000	12.196	14.189	69.744	13.245	23.479	159.39	2.4239	20.235	0.0049821
-19.500	6.0843	undefined	12.203	14.200	69.770	40.000	0.025000	12.203	14.200	69.770	13.239	23.465	159.57	2.4150	20.271	0.0049910	40.000	0.025000	12.203	14.200	69.770	13.239	23.465	159.57	2.4150	20.271	0.0049910
-19.000	6.0976	undefined	12.210	14.211	69.797	40.000	0.025000	12.210	14.211	69.797	13.234	23.451	159.75	2.4061	20.307	0.0049999	40.000	0.025000	12.210	14.211	69.797	13.234	23.451	159.75	2.4061	20.307	0.0049999
-18.500	6.1108	undefined	12.216	14.222	69.823	40.000	0.025000	12.216	14.222	69.823	13.229	23.438	159.92	2.3973	20.343	0.0050088	40.000	0.025000	12.216	14.222	69.823	13.229	23.438	159.92	2.3973	20.343	0.0050088
-18.000	6.1241	undefined	12.223	14.233	69.848	40.000	0.025000	12.223	14.233	69.848	13.223	23.424	160.10	2.3886	20.379	0.0050177	40.000	0.025000	12.223	14.233	69.848	13.223	23.424	160.10	2.3886	20.379	0.0050177
-17.500	6.1374	undefined	12.230	14.244	69.874	40.000	0.025000	12.230	14.244	69.874	13.218	23.411	160.28	2.3799	20.415	0.0050266	40.000	0.025000	12.230	14.244	69.874	13.218	23.411	160.28	2.3799	20.415	0.0050266
-17.000	6.1507	undefined	12.236	14.255	69.900	40.000	0.025000	12.236	14.255	69.900	13.213	23.398	160.46	2.3713	20.451	0.0050354	40.000	0.025000	12.236	14.255	69.900	13.213	23.398	160.46	2.3713	20.451	0.0050354
-16.500	6.1639	undefined	12.243	14.266	69.926	40.000	0.025000	12.243	14.266	69.926	13.208	23.385	160.64	2.3627	20.487	0.0050443	40.000	0.025000	12.243	14.266	69.926	13.208	23.385	160.64	2.3627	20.487	0.0050443
-16.000	6.1772	undefined	12.249	14.277	69.952	40.000	0.025000	12.249	14.277	69.952	13.202	23.372	160.82	2.3542	20.523	0.0050532	40.000	0.025000	12.249	14.277	69.952	13.202	23.372	160.82	2.3542	20.523	0.0050532
-15.500	6.1905	undefined	12.256	14.288	69.977	40.000	0.025000	12.256	14.288	69.977	13.197	23.359	160.99	2.3457	20.559	0.0050621	40.000	0.025000	12.256	14.288	69.977	13.197	23.359	160.99	2.3457	20.559	0.0050621
-15.000	6.2037	undefined	12.263	14.299	70.003	40.000	0.025000	12.263	14.299	70.003	13.192	23.346	161.17	2.3373	20.596	0.0050710	40.000	0.025000	12.263	14.299	70.003	13.192	23.346	161.17	2.3373	20.596	0.0050710
-14.500	6.2170	undefined	12.269	14.310	70.028	40.000	0.025000	12.269	14.310	70.028	13.187	23.334	161.35	2.3289	20.632	0.0050798	40.000	0.025000	12.269	14.310	70.028	13.187	23.334	161.35	2.3289	20.632	0.0050798
-14.000	6.2303	undefined	12.276	14.321	70.054	40.000	0.025000	12.276	14.321	70.054	13.183	23.321	161.52	2.3206	20.668	0.0050887	40.000	0.025000	12.276	14.321	70.054	13.183	23.321	161.52	2.3206	20.668	0.0050887
-13.500	6.2435	undefined	12.282	14.332	70.079	40.000	0.025000	12.282	14.332	70.079	13.178	23.309	161.70	2.3124	20.704	0.0050976	40.000	0.025000	12.282	14.332	70.079	13.178	23.309	161.70	2.3124	20.704	0.0050976
-13.000	6.2568	undefined	12.289	14.343	70.105	40.000	0.025000	12.289	14.343	70.105	13.173	23.297	161.88	2.3042	20.740	0.0051064	40.000	0.025000	12.289	14.343	70.105	13.173	23.297	161.88	2.3042	20.740	0.0051064
-12.500	6.2700	undefined	12.296	14.354	70.130	40.000	0.025000	12.296	14.354	70.130	13.168	23.284	162.05	2.2960	20.776	0.0051153	40.000	0.025000	12.296	14.354	70.130	13.168	23.284	162.05	2.2960	20.776	0.0051153
-12.000	6.2833	undefined	12.302	14.364	70.155	40.000	0.025000	12.302	14.364	70.155	13.163	23.272	162.23	2.2879	20.812	0.0051242	40.000	0.025000	12.302	14.364	70.155	13.163	23.272	162.23	2.2879	20.812	0.0051242
-11.500	6.2965	undefined	12.309	14.375	70.180	40.000	0.025000	12.309	14.375	70.180	13.159	23.260	162.40	2.2798	20.848	0.0051330	40.000	0.025000	12.309	14.375	70.180	13.159	23.260	162.40	2.2798	20.848	0.0051330
-11.000	6.3098	undefined	12.315	14.386	70.205	40.000	0.025000	12.315	14.386	70.205	13.154	23.249	162.58	2.2718	20.884	0.0051419	40.000	0.025000	12.315	14.386	70.205	13.154	23.249	162.58	2.2718	20.884	0.0051419
-10.500	6.3230	undefined	12.322	14.397	70.230	40.000	0.025000	12.322	14.397	70.230	13.149	23.237	162.76	2.2639	20.920	0.0051507	40.000	0.025000	12.322	14.397	70.230	13.149	23.237	162.76	2.2639	20.920	0.0051507
-10.000	6.3363	undefined	12.328	14.408	70.255	40.000	0.025000	12.328	14.408	70.255	13.145	23.225	162.93	2.2559	20.956	0.0051595	40.000	0.025000	12.328	14.408	70.255	13.145	23.225	162.93	2.2559	20.956	0.0051595
-9.5000	6.3495	undefined	12.335	14.419	70.280	40.000	0.025000	12.335	14.419	70.280	13.140	23.214	163.10	2.2481	20.992	0.0051684	40.000	0.025000	12.335	14.419	70.280	13.140	23.214	163.10	2.2481	20.992	0.0051684
-9.0000	6.3627	undefined	12.342	14.430	70.305	40.000	0.025000	12.342	14.430	70.305	13.136	23.202	163.28	2.2403	21.028	0.0051772	40.000	0.025000	12.342	14.430	70.305	13.136	23.202	163.28	2.2403	21.028	0.0051772
-8.5000	6.3760	undefined	12.348	14.441	70.330	40.000	0.025000	12.348	14.441	70.330	13.132	23.191	163.45	2.2325	21.064	0.0051861	40.000	0.025000	12.348	14.441	70.330	13.132	23.191	163.45	2.2325	21.064	0.0051861
-8.0000	6.3892	undefined	12.355	14.452	70.355	40.000	0.025000	12.355	14.452	70.355	13.127	23.180	163.63	2.2248	21.100	0.0051949	40.000	0.025000	12.355	14.452	70.355	13.127	23.180	163.63	2.2248	21.100	0.0051949
-7.5000	6.4024	undefined	12.361	14.463	70.380	40.000	0.025000	12.361	14.463	70.380	13.123	23.169	163.80	2.2171	21.136	0.0052037	40.000	0.025000	12.361	14.463	70.380	13.123	23.169	163.80	2.2171	21.136	0.0052037
-7.0000	6.4157	undefined	12.368	14.474	70.404	40.000	0.025000	12.368	14.474	70.404	13.119	23.158	163.97	2.2095	21.172	0.0052125	40.000	0.025000	12.368	14.474	70.404	13.119	23.158	163.97	2.2095	21.172	0.0052125
-6.5000	6.4289	undefined	12.374	14.485	70.429	40.000	0.025000	12.374	14.485	70.429	13.114	23.147	164.15	2.2019	21.209	0.0052214	40.000	0.025000	12.374	14.485	70.429	13.114	23.147	164.15	2.2019	21.209	0.0052214
-6.0000	6.4421	undefined	12.381	14.495	70.454	40.000	0.025000	12.381	14.495	70.454	13.110	23.136	164.32	2.1943	21.245	0.0052302	40.000	0.025000	12.381	14.495	70.454	13.110	23.136	164.32	2.1943	21.245	0.0052302
-5.5000	6.4554	undefined	12.387	14.506	70.478	40.000	0.025000	12.387	14.506	70.478	13.106	23.125	164.49	2.1868	21.281	0.0052390	40.000	0.025000	12.387	14.506	70.478	13.106	23.125	164.49	2.1868	21.281	0.0052390
-5.0000	6.4686	undefined	12.394	14.517	70.503	40.000	0.025000	12.394	14.517	70.503	13.102	23.114	164.67	2.1794	21.317	0.0052478	40.000	0.025000	12.394	14.517	70.503	13.102	23.114	164.67	2.1794	21.317	0.0052478
-4.5000	6.4818	undefined	12.401	14.528	70.527	40.000	0.025000	12.401	14.528	70.527	13.098	23.104	164.84	2.1720	21.353	0.0052566	40.000	0.025000	12.401	14.528	70.527	13.098	23.104	164.84	2.1720	21.353	0.0052566
-4.0000	6.4950	undefined	12.407	14.539	70.551	40.000	0.025000	12.407	14.539	70.551	13.094	23.093	165.01	2.1646	21.389	0.0052654	40.000	0.025000	12.407	14.539	70.551	13.094	23.093	165.01	2.1646	21.389	0.0052654
-3.5000	6.5082	undefined	12.414	14.550	70.576	40.000	0.025000	12.414	14.550	70.576	13.090	23.083	165.18	2.1573	21.425	0.0052742	40.000	0.025000	12.414	14.550	70.576	13.090	23.083	165.18	2.1573	21.425	0.0052742
-3.0000	6.5215	undefined	12.420	14.561	70.600	40.000	0.025000	12.420	14.561	70.600	13.086	23.073	165.35	2.1500	21.461	0.0052830	40.000	0.025000	12.420	14.561	70.600	13.086	23.073	165.35	2.1500	21.461	0.0052830
-2.5000	6.5347	undefined	12.427	14.572	70.624	40.000	0.025000	12.427	14.572	70.624	13.082	23.062	165.53	2.1428	21.497	0.0052918	40.000	0.025000	12.427	14.572	70.624	13.082	23.062	165.53	2.1428	21.497	0.0052918
-2.0000	6.5479	undefined	12.433	14.583	70.648	40.000	0.025000	12.433	14.583	70.648	13.078	23.052	165.70	2.1356	21.533	0.0053006	40.000	0.025000	12.433	14.583	70.648	13.078	23.052	165.70	2.1356	21.533	0.0053006
-1.5000	6.5611	undefined	12.440	14.593	70.672	40.000	0.025000	12.440	14.593	70.672	13.074	23.042	165.87	2.1284	21.569	0.0053094	40.000	0.025000	12.440	14.593	70.672	13.074	23.042	165.87	2.1284	21.569	0.0053094
-1.0000	6.5743	undefined	12.446	14.604	70.696	40.000	0.025000	12.446	14.604	70.696	13.070	23.032	166.04	2.1213	21.605	0.0053181	40.000	0.025000	12.446	14.604	70.696	13.070	23.032	166.04	2.1213	21.605	0.0053181
-0.50000	6.5875	undefined	12.453	14.615	70.720	40.000	0.025000	12.453	14.615	70.720	13.066	23.022	166.21	2.1143	21.641	0.0053269	40.000	0.025000	12.453	14.615	70.720	13.066	23.022	166.21	2.1143	21.641	0.0053269
0.0000	6.6007	undefined	12.459	14.626	70.744	40.000	0.025000	12.459	14.626	70.744	13.063	23.012	166.38	2.1072	21.677	0.0053357	40.000	0.025000	12.459	14.626	70.744	13.063	23.012	166.38	2.1072	21.677	0.0053357
0.50000	6.6139	undefined	12.466	14.637	70.768	40.000	0.025000	12.466	14.637	70.768	13.059	23.002	166.55	2.1002	21.713	0.0053445	40.000	0.025000	12.466	14.637	70.768	13.059	23.002	166.55	2.1002	21.713	0.0053445
1.0000	6.6271	undefined	12.472	14.648	70.792	40.000	0.025000	12.472	14.648	70.792	13.055	22.993	166.72	2.0933	21.749	0.0053532	40.000	0.025000	12.472	14.648	70.792	13.055	22.993	166.72	2.0933	21.749	0.0053532
1.5000	6.6403	undefined	12.479	14.659	70.816	40.000	0.025000	12.479	14.659	70.816	13.052	22.983	166.89	2.0864	21.785	0.0053620	40.000	0.025000	12.479	14.659	70.816	13.052	22.983	166.89	2.0864	21.785	0.0053620
2.0000	6.6535	undefined	12.486	14.669	70.839	40.000	0.025000	12.486	14.669	70.839	13.048	22.974	167.06	2.0795	21.821	0.0053708	40.000	0.025000	12.486	14.669	70.839	13.048	22.974	167.06	2.0795	21.821	0.0053708
2.5000	6.6667	undefined	12.492	14.680	70.863	40.000	0.025000	12.492	14.680	70.863	13.044	22.964	167.23	2.0727	21.857	0.0053795	40.000	0.025000	12.492	14.680	70.863	13.044	22.964	167.23	2.0727	21.857	0.0053795
3.0000	6.6799	undefined	12.499	14.691	70.887	40.000	0.025000	12.499	14.691	70.887	13.041	22.955	167.40	2.0659	21.893	0.0053883	40.000	0.025000	12.499	14.691	70.887	13.041	22.955	167.40	2.0659	21.893	0.0053883
3.5000	6.6931	undefined	12.505	14.702	70.910	40.000	0.025000	12.505	14.702	70.910	13.037	22.946	167.57	2.0591	21.929	0.0053970	40.000	0.025000	12.505	14.702	70.910	13.037	22.946	167.57	2.0591	21.929	0.0053970
4.0000	6.7063	undefined	12.512	14.713	70.934	40.000	0.025000	12.512	14.713	70.934	13.034	22.936	167.74	2.0524	21.965	0.0054058	40.000	0.025000	12.512	14.713	70.934	13.034	22.936	167.74	2.0524	21.965	0.0054058
4.5000	6.7195	undefined	12.518	14.724	70.957	40.000	0.025000	12.518	14.724	70.957	13.030	22.927	167.91	2.0457	22.001	0.0054145	40.000	0.025000	12.518	14.724	70.957	13.030	22.927	167.91	2.0457	22.001	0.0054145
5.0000	6.7327	undefined	12.525	14.735	70.981	40.000	0.025000	12.525	14.735	70.981	13.027	22.918	168.07	2.0391	22.037	0.0054232	40.000	0.025000	12.525	14.735	70.981	13.027	22.918	168.07	2.0391	22.037	0.0054232
5.5000	6.7459	undefined	12.531	14.745	71.004	40.000	0.025000	12.531	14.745	71.004	13.024	22.909	168.24	2.0325	22.072	0.0054320	40.000	0.025000	12.531	14.745	71.004	13.024	22.909	168.24	2.0325	22.072	0.0054320
6.0000	6.7591	undefined	12.538	14.756	71.028	40.000	0.025000	12.538	14.756	71.028	13.020	22.900	168.41	2.0259	22.108	0.0054407	40.000	0.025000	12.538	14.756	71.028	13.020	22.900	168.41	2.0259	22.108	0.0054407
6.5000	6.7722	undefined	12.544	14.767	71.051	40.000	0.025000	12.544	14.767	71.051	13.017	22.891	168.58	2.0194	22.144	0.0054494	40.000	0.025000	12.544	14.767	71.051	13.017	22.891	168.58	2.0194	22.144	0.0054494
7.0000	6.7854	undefined	12.551	14.778	71.074	40.000	0.025000	12.551	14.778	71.074	13.014	22.882	168.74	2.0129	22.180	0.0054582	40.000	0.025000	12.551	14.778	71.074	13.014	22.882	168.74	2.0129	22.180	0.0054582
7.5000	6.7986	undefined	12.557	14.789	71.097	40.000	0.025000	12.557	14.789	71.097	13.010	22.874	168.91	2.0064	22.216	0.0054669	40.000	0.025000	12.557	14.789	71.097	13.010	22.874	168.91	2.0064	22.216	0.0054669
8.0000	6.8118	undefined	12.564	14.800	71.120	40.000	0.025000	12.564	14.800	71.120	13.007	22.865	169.08	2.0000	22.252	0.0054756	40.000	0.025000	12.564	14.800	71.120	13.007	22.865	169.08	2.0000	22.252	0.0054756
8.5000	6.8250	undefined	12.570	14.810	71.144	40.000	0.025000	12.570	14.810	71.144	13.004	22.856	169.25	1.9936	22.288	0.0054843	40.000	0.025000	12.570	14.810	71.144	13.004	22.856	169.25	1.9936	22.288	0.0054843
9.0000	6.8382	undefined	12.577	14.821	71.167	40.000	0.025000	12.577	14.821	71.167	13.001	22.848	169.41	1.9872	22.324	0.0054930	40.000	0.025000	12.577	14.821	71.167	13.001	22.848	169.41	1.9872	22.324	0.0054930
9.5000	6.8513	undefined	12.583	14.832	71.190	40.000	0.025000	12.583	14.832	71.190	12.997	22.839	169.58	1.9809	22.360	0.0055017	40.000	0.025000	12.583	14.832	71.190	12.997	22.839	169.58	1.9809	22.360	0.0055017
10.000	6.8645	undefined	12.590	14.843	71.213	40.000	0.025000	12.590	14.843	71.213	12.994	22.831	169.75	1.9746	22.396	0.0055104	40.000	0.025000	12.590	14.843	71.213	12.994	22.831	169.75	1.9746	22.396	0.0055104
10.500	6.8777	undefined	12.596	14.854	71.236	40.000	0.025000	12.596	14.854	71.236	12.991	22.822	169.91	1.9684	22.432	0.0055191	40.000	0.025000	12.596	14.854	71.236	12.991	22.822	169.91	1.9684	22.432	0.0055191
11.000	6.8909	undefined	12.603	14.864	71.258	40.000	0.025000	12.603	14.864	71.258	12.988	22.814	170.08	1.9622	22.468	0.0055278	40.000	0.025000	12.603	14.864	71.258	12.988	22.814	170.08	1.9622	22.468	0.0055278
11.500	6.9040	undefined	12.609	14.875	71.281	40.000	0.025000	12.609	14.875	71.281	12.985	22.806	170.24	1.9560	22.504	0.0055365	40.000	0.025000	12.609	14.875	71.281	12.985	22.806	170.24	1.9560	22.504	0.0055365
12.000	6.9172	undefined	12.616	14.886	71.304	40.000	0.025000	12.616	14.886	71.304	12.982	22.798	170.41	1.9498	22.540	0.0055452	40.000	0.025000	12.616	14.886	71.304	12.982	22.798	170.41	1.9498	22.540	0.0055452
12.500	6.9304	undefined	12.622	14.897	71.327	40.000	0.025000	12.622	14.897	71.327	12.979	22.790	170.58	1.9437	22.575	0.0055539	40.000	0.025000	12.622	14.897	71.327	12.979	22.790	170.58	1.9437	22.575	0.0055539
13.000	6.9435	undefined	12.629	14.908	71.349	40.000	0.025000	12.629	14.908	71.349	12.976	22.782	170.74	1.9376	22.611	0.0055625	40.000	0.025000	12.629	14.908	71.349	12.976	22.782	170.74	1.9376	22.611	0.0055625
13.500	6.9567	undefined	12.635	14.919	71.372	40.000	0.025000	12.635	14.919	71.372	12.973	22.774	170.91	1.9316	22.647	0.0055712	40.000	0.025000	12.635	14.919	71.372	12.973	22.774	170.91	1.9316	22.647	0.0055712
14.000	6.9699	undefined	12.642	14.929	71.395	40.000	0.025000	12.642	14.929	71.395	12.970	22.766	171.07	1.9255	22.683	0.0055799	40.000	0.025000	12.642	14.929	71.395	12.970	22.766	171.07	1.9255	22.683	0.0055799
14.500	6.9830	undefined	12.648	14.940	71.417	40.000	0.025000	12.648	14.940	71.417	12.967	22.758	171.24	1.9195	22.719	0.0055886	40.000	0.025000	12.648	14.940	71.417	12.967	22.758	171.24	1.9195	22.719	0.0055886
15.000	6.9962	undefined	12.655	14.951	71.440	40.000	0.025000	12.655	14.951	71.440	12.964	22.750	171.40	1.9136	22.755	0.0055972	40.000	0.025000	12.655	14.951	71.440	12.964	22.750	171.40	1.9136	22.755	0.0055972
15.500	7.0093	undefined	12.661	14.962	71.462	40.000	0.025000	12.661	14.962	71.462	12.961	22.742	171.56	1.9077	22.791	0.0056059	40.000	0.025000	12.661	14.962	71.462	12.961	22.742	171.56	1.9077	22.791	0.0056059
16.000	7.0225	undefined	12.668	14.973	71.485	40.000	0.025000	12.668	14.973	71.485	12.959	22.734	171.73	1.9018	22.827	0.0056145	40.000	0.025000	12.668	14.973	71.485	12.959	22.734	171.73	1.9018	22.827	0.0056145
16.500	7.0357	undefined	12.674	14.983	71.507	40.000	0.025000	12.674	14.983	71.507	12.956	22.727	171.89	1.8959	22.862	0.0056232	40.000	0.025000	12.674	14.983	71.507	12.956	22.727	171.89	1.8959	22.862	0.0056232
17.000	7.0488	undefined	12.681	14.994	71.529	40.000	0.025000	12.681	14.994	71.529	12.953	22.719	172.06	1.8901	22.898	0.0056318	40.000	0.025000	12.681	14.994	71.529	12.953	22.719	172.06	1.8901	22.898	0.0056318
17.500	7.0620	undefined	12.687	15.005	71.552	40.000	0.025000	12.687	15.005	71.552	12.950	22.712	172.22	1.8843	22.934	0.0056405	40.000	0.025000	12.687	15.005	71.552	12.950	22.712	172.22	1.8843	22.934	0.0056405
18.000	7.0751	undefined	12.693	15.016	71.574	40.000	0.025000	12.693	15.016	71.574	12.947	22.704	172.38	1.8785	22.970	0.0056491	40.000	0.025000	12.693	15.016	71.574	12.947	22.704	172.38	1.8785	22.970	0.0056491
18.500	7.0883	undefined	12.700	15.027	71.596	40.000	0.025000	12.700	15.027	71.596	12.945	22.697	172.55	1.8727	23.006	0.0056578	40.000	0.025000	12.700	15.027	71.596	12.945	22.697	172.55	1.8727	23.006	0.0056578
19.000	7.1014	undefined	12.706	15.037	71.618	40.000	0.025000	12.706	15.037	71.618	12.942	22.689	172.71	1.8670	23.042	0.0056664	40.000	0.025000	12.706	15.037	71.618	12.942	22.689	172.71	1.8670	23.042	0.0056664
19.500	7.1146	undefined	12.713	15.048	71.640	40.000	0.025000	12.713	15.048	71.640	12.939	22.682	172.87	1.8613	23.078	0.0056750	40.000	0.025000	12.713	15.048	71.640	12.939	22.682	172.87	1.8613	23.078	0.0056750
20.000	7.1277	undefined	12.719	15.059	71.663	40.000	0.025000	12.719	15.059	71.663	12.937	22.675	173.03	1.8557	23.113	0.0056836	40.000	0.025000	12.719	15.059	71.663	12.937	22.675	173.03	1.8557	23.113	0.0056836
20.500	7.1409	undefined	12.726	15.070	71.685	40.000	0.025000	12.726	15.070	71.685	12.934	22.667	173.20	1.8501	23.149	0.0056923	40.000	0.025000	12.726	15.070	71.685	12.934	22.667	173.20	1.8501	23.149	0.0056923
21.000	7.1540	undefined	12.732	15.080	71.707	40.000	0.025000	12.732	15.080	71.707	12.931	22.660	173.36	1.8445	23.185	0.0057009	40.000	0.025000	12.732	15.080	71.707	12.931	22.660	173.36	1.8445	23.185	0.0057009
21.500	7.1672	undefined	12.739	15.091	71.729	40.000	0.025000	12.739	15.091	71.729	12.929	22.653	173.52	1.8389	23.221	0.0057095	40.000	0.025000	12.739	15.091	71.729	12.929	22.653	173.52	1.8389	23.221	0.0057095
22.000	7.1803	undefined	12.745	15.102	71.751	40.000	0.025000	12.745	15.102	71.751	12.926	22.646	173.68	1.8333	23.257	0.0057181	40.000	0.025000	12.745	15.102	71.751	12.926	22.646	173.68	1.8333	23.257	0.0057181
22.500	7.1935	undefined	12.752	15.113	71.772	40.000	0.025000	12.752	15.113	71.772	12.924	22.639	173.85	1.8278	23.292	0.0057267	40.000	0.025000	12.752	15.113	71.772	12.924	22.639	173.85	1.8278	23.292	0.0057267
23.000	7.2066	undefined	12.758	15.124	71.794	40.000	0.025000	12.758	15.124	71.794	12.921	22.632	174.01	1.8224	23.328	0.0057353	40.000	0.025000	12.758	15.124	71.794	12.921	22.632	174.01	1.8224	23.328	0.0057353
23.500	7.2197	undefined	12.765	15.134	71.816	40.000	0.025000	12.765	15.134	71.816	12.919	22.625	174.17	1.8169	23.364	0.0057439	40.000	0.025000	12.765	15.134	71.816	12.919	22.625	174.17	1.8169	23.364	0.0057439
24.000	7.2329	undefined	12.771	15.145	71.838	40.000	0.025000	12.771	15.145	71.838	12.916	22.618	174.33	1.8115	23.400	0.0057525	40.000	0.025000	12.771	15.145	71.838	12.916	22.618	174.33	1.8115	23.400	0.0057525
24.500	7.2460	undefined	12.778	15.156	71.859	40.000	0.025000	12.778	15.156	71.859	12.914	22.611	174.49	1.8061	23.436	0.0057611	40.000	0.025000	12.778	15.156	71.859	12.914	22.611	174.49	1.8061	23.436	0.0057611
25.000	7.2592	undefined	12.784	15.167	71.881	40.000	0.025000	12.784	15.167	71.881	12.911	22.604	174.65	1.8007	23.471	0.0057697	40.000	0.025000	12.784	15.167	71.881	12.911	22.604	174.65	1.8007	23.471	0.0057697
25.500	7.2723	undefined	12.790	15.177	71.903	40.000	0.025000	12.790	15.177	71.903	12.909	22.598	174.81	1.7953	23.507	0.0057783	40.000	0.025000	12.790	15.177	71.903	12.909	22.598	174.81	1.7953	23.507	0.0057783
26.000	7.2854	undefined	12.797	15.188	71.924	40.000	0.025000	12.797	15.188	71.924	12.906	22.591	174.97	1.7900	23.543	0.0057869	40.000	0.025000	12.797	15.188	71.924	12.906	22.591	174.97	1.7900	23.543	0.0057869
26.500	7.2986	undefined	12.803	15.199	71.946	40.000	0.025000	12.803	15.199	71.946	12.904	22.584	175.13	1.7847	23.579	0.0057954	40.000	0.025000	12.803	15.199	71.946	12.904	22.584	175.13	1.7847	23.579	0.0057954
27.000	7.3117	undefined	12.810	15.210	71.967	40.000	0.025000	12.810	15.210	71.967	12.902	22.578	175.29	1.7795	23.614	0.0058040	40.000	0.025000	12.810	15.210	71.967	12.902	22.578	175.29	1.7795	23.614	0.0058040
27.500	7.3248	undefined	12.816	15.220	71.989	40.000	0.025000	12.816	15.220	71.989	12.899	22.571	175.45	1.7742	23.650	0.0058126	40.000	0.025000	12.816	15.220	71.989	12.899	22.571	175.45	1.7742	23.650	0.0058126
28.000	7.3380	undefined	12.823	15.231	72.010	40.000	0.025000	12.823	15.231	72.010	12.897	22.565	175.61	1.7690	23.686	0.0058211	40.000	0.025000	12.823	15.231	72.010	12.897	22.565	175.61	1.7690	23.686	0.0058211
28.500	7.3511	undefined	12.829	15.242	72.032	40.000	0.025000	12.829	15.242	72.032	12.895	22.558	175.77	1.7638	23.722	0.0058297	40.000	0.025000	12.829	15.242	72.032	12.895	22.558	175.77	1.7638	23.722	0.0058297
29.000	7.3642	undefined	12.836	15.253	72.053	40.000	0.025000	12.836	15.253	72.053	12.892	22.552	175.93	1.7587	23.757	0.0058382	40.000	0.025000	12.836	15.253	72.053	12.892	22.552	175.93	1.7587	23.757	0.0058382
29.500	7.3773	undefined	12.842	15.263	72.074	40.000	0.025000	12.842	15.263	72.074	12.890	22.545	176.09	1.7535	23.793	0.0058468	40.000	0.025000	12.842	15.263	72.074	12.890	22.545	176.09	1.7535	23.793	0.0058468
30.000	7.3905	undefined	12.848	15.274	72.096	40.000	0.025000	12.848	15.274	72.096	12.888	22.539	176.25	1.7484	23.829	0.0058554	40.000	0.025000	12.848	15.274	72.096	12.888	22.539	176.25	1.7484	23.829	0.0058554
